   start[kHz] stop[kHz] bw[kHz]
  1     80.00    302.00  222.00
  2    302.38    524.38  222.00
  3    524.75    746.75  222.00
  4    747.13    969.13  222.00
  5    969.50   1191.50  222.00
  6   1191.88   1413.88  222.00
  7   1414.26   1636.26  222.00
  8   1636.63   1858.63  222.00
  9   1859.01   2081.01  222.00
 10   2081.39   2303.39  222.00
 11   2303.76   2525.76  222.00
 12   2526.14   2748.14  222.00
 13   2748.51   2970.51  222.00
 14   2970.89   3192.89  222.00
 15   3193.27   3415.27  222.00
 16   3415.64   3637.64  222.00
 17   3638.02   3860.02  222.00
 18   3860.40   4082.40  222.00
 19   4082.77   4304.77  222.00
 20   4305.15   4527.15  222.00
 21   4527.52   4749.52  222.00
 22   4749.90   4971.90  222.00
 23   4972.28   5194.28  222.00
 24   5194.65   5416.65  222.00
 25   5417.03   5639.03  222.00
 26   5639.41   5861.41  222.00
 27   5861.78   6083.78  222.00
 28   6084.16   6306.16  222.00
 29   6306.53   6528.53  222.00
 30   6528.91   6750.91  222.00
 31   6751.29   6973.29  222.00
 32   6973.66   7195.66  222.00
 33   7196.04   7418.04  222.00
 34   7418.42   7640.42  222.00
 35   7640.79   7862.79  222.00
 36   7863.17   8085.17  222.00
 37   8085.54   8307.54  222.00
 38   8307.92   8529.92  222.00
 39   8530.30   8752.30  222.00
 40   8752.67   8974.67  222.00
 41   8975.05   9197.05  222.00
 42   9197.43   9419.43  222.00
 43   9419.80   9641.80  222.00
 44   9642.18   9864.18  222.00
 45   9864.55  10086.55  222.00
 46  10086.93  10308.93  222.00
 47  10309.31  10531.31  222.00
 48  10531.68  10753.68  222.00
 49  10754.06  10976.06  222.00
 50  10976.44  11198.44  222.00
 51  11198.81  11420.81  222.00
 52  11421.19  11643.19  222.00
 53  11643.56  11865.56  222.00
 54  11865.94  12087.94  222.00
 55  12088.32  12310.32  222.00
 56  12310.69  12532.69  222.00
 57  12533.07  12755.07  222.00
 58  12755.45  12977.45  222.00
 59  12977.82  13199.82  222.00
 60  13200.20  13422.20  222.00
 61  13422.57  13644.57  222.00
 62  13644.95  13866.95  222.00
 63  13867.33  14089.33  222.00
 64  14089.70  14311.70  222.00
 65  14312.08  14534.08  222.00
 66  14534.46  14756.46  222.00
 67  14756.83  14978.83  222.00
 68  14979.21  15201.21  222.00
 69  15201.58  15423.58  222.00
 70  15423.96  15645.96  222.00
 71  15646.34  15868.34  222.00
 72  15868.71  16090.71  222.00
 73  16091.09  16313.09  222.00
 74  16313.47  16535.47  222.00
 75  16535.84  16757.84  222.00
 76  16758.22  16980.22  222.00
 77  16980.59  17202.59  222.00
 78  17202.97  17424.97  222.00
 79  17425.35  17647.35  222.00
 80  17647.72  17869.72  222.00
 81  17870.10  18092.10  222.00
 82  18092.48  18314.48  222.00
 83  18314.85  18536.85  222.00
 84  18537.23  18759.23  222.00
 85  18759.60  18981.60  222.00
 86  18981.98  19203.98  222.00
 87  19204.36  19426.36  222.00
 88  19426.73  19648.73  222.00
 89  19649.11  19871.11  222.00
 90  19871.49  20093.49  222.00
 91  20093.86  20315.86  222.00
 92  20316.24  20538.24  222.00
 93  20538.61  20760.61  222.00
 94  20760.99  20982.99  222.00
 95  20983.37  21205.37  222.00
 96  21205.74  21427.74  222.00
 97  21428.12  21650.12  222.00
 98  21650.50  21872.50  222.00
 99  21872.87  22094.87  222.00
100  22095.25  22317.25  222.00
101  22317.62  22539.62  222.00
102  22540.00  22762.00  222.00
103  22762.38  22984.38  222.00
104  22984.75  23206.75  222.00
105  23207.13  23429.13  222.00
106  23429.50  23651.50  222.00
107  23651.88  23873.88  222.00
108  23874.26  24096.26  222.00
109  24096.63  24318.63  222.00
110  24319.01  24541.01  222.00
111  24541.39  24763.39  222.00
112  24763.76  24985.76  222.00
113  24986.14  25208.14  222.00
114  25208.51  25430.51  222.00
115  25430.89  25652.89  222.00
116  25653.27  25875.27  222.00
117  25875.64  26097.64  222.00
118  26098.02  26320.02  222.00
119  26320.40  26542.40  222.00
120  26542.77  26764.77  222.00
121  26765.15  26987.15  222.00
122  26987.52  27209.52  222.00
123  27209.90  27431.90  222.00
124  27432.28  27654.28  222.00
125  27654.65  27876.65  222.00
126  27877.03  28099.03  222.00
127  28099.41  28321.41  222.00
128  28321.78  28543.78  222.00
129  28544.16  28766.16  222.00
130  28766.53  28988.53  222.00
131  28988.91  29210.91  222.00
132  29211.29  29433.29  222.00
133  29433.66  29655.66  222.00
134  29656.04  29878.04  222.00
135  29878.42  30100.42  222.00
136  30100.79  30322.79  222.00
137  30323.17  30545.17  222.00
138  30545.54  30767.54  222.00
139  30767.92  30989.92  222.00
140  30990.30  31212.30  222.00
141  31212.67  31434.67  222.00
142  31435.05  31657.05  222.00
143  31657.43  31879.43  222.00
144  31879.80  32101.80  222.00
145  32102.18  32324.18  222.00
146  32324.55  32546.55  222.00
147  32546.93  32768.93  222.00
148  32769.31  32991.31  222.00
149  32991.68  33213.68  222.00
150  33214.06  33436.06  222.00
151  33436.44  33658.44  222.00
152  33658.81  33880.81  222.00
153  33881.19  34103.19  222.00
154  34103.56  34325.56  222.00
155  34325.94  34547.94  222.00
156  34548.32  34770.32  222.00
157  34770.69  34992.69  222.00
158  34993.07  35215.07  222.00
159  35215.45  35437.45  222.00
160  35437.82  35659.82  222.00
161  35660.20  35882.20  222.00
162  35882.57  36104.57  222.00
163  36104.95  36326.95  222.00
164  36327.33  36549.33  222.00
165  36549.70  36771.70  222.00
166  36772.08  36994.08  222.00
167  36994.46  37216.46  222.00
168  37216.83  37438.83  222.00
169  37439.21  37661.21  222.00
170  37661.58  37883.58  222.00
171  37883.96  38105.96  222.00
172  38106.34  38328.34  222.00
173  38328.71  38550.71  222.00
174  38551.09  38773.09  222.00
175  38773.47  38995.47  222.00
176  38995.84  39217.84  222.00
177  39218.22  39440.22  222.00
178  39440.59  39662.59  222.00
179  39662.97  39884.97  222.00
180  39885.35  40107.35  222.00
181  40107.72  40329.72  222.00
182  40330.10  40552.10  222.00
183  40552.48  40774.48  222.00
184  40774.85  40996.85  222.00
185  40997.23  41219.23  222.00
186  41219.60  41441.60  222.00
187  41441.98  41663.98  222.00
188  41664.36  41886.36  222.00
189  41886.73  42108.73  222.00
190  42109.11  42331.11  222.00
191  42331.49  42553.49  222.00
192  42553.86  42775.86  222.00
193  42776.24  42998.24  222.00
194  42998.61  43220.61  222.00
195  43220.99  43442.99  222.00
196  43443.37  43665.37  222.00
197  43665.74  43887.74  222.00
198  43888.12  44110.12  222.00
199  44110.50  44332.50  222.00
200  44332.87  44554.87  222.00
201  44555.25  44777.25  222.00
202  44777.62  44999.62  222.00
