   start[kHz] stop[kHz] bw[kHz]
  1     80.00     82.31    2.31
  2     82.31     84.62    2.31
  3     84.62     86.94    2.31
  4     86.94     89.25    2.31
  5     89.25     91.56    2.31
  6     91.56     93.88    2.31
  7     93.88     96.19    2.31
  8     96.19     98.50    2.31
  9     98.50    100.81    2.31
 10    100.81    103.12    2.31
 11    103.12    105.44    2.31
 12    105.44    107.75    2.31
 13    107.75    110.06    2.31
 14    110.06    112.38    2.31
 15    112.38    114.69    2.31
 16    114.69    117.00    2.31
 17    117.00    119.31    2.31
 18    119.31    121.62    2.31
 19    121.62    123.94    2.31
 20    123.94    126.25    2.31
 21    126.25    128.56    2.31
 22    128.56    130.88    2.31
 23    130.88    133.19    2.31
 24    133.19    135.50    2.31
 25    135.50    137.81    2.31
 26    137.81    140.12    2.31
 27    140.12    142.44    2.31
 28    142.44    144.75    2.31
 29    144.75    147.06    2.31
 30    147.06    149.38    2.31
 31    149.38    151.69    2.31
 32    151.69    154.00    2.31
 33    154.00    156.31    2.31
 34    156.31    158.62    2.31
 35    158.62    160.94    2.31
 36    160.94    163.25    2.31
 37    163.25    165.56    2.31
 38    165.56    167.88    2.31
 39    167.88    170.19    2.31
 40    170.19    172.50    2.31
 41    172.50    174.81    2.31
 42    174.81    177.12    2.31
 43    177.12    179.44    2.31
 44    179.44    181.75    2.31
 45    181.75    184.06    2.31
 46    184.06    186.38    2.31
 47    186.38    188.69    2.31
 48    188.69    191.00    2.31
 49    191.00    193.31    2.31
 50    193.31    195.62    2.31
 51    195.62    197.94    2.31
 52    197.94    200.25    2.31
 53    200.25    202.56    2.31
 54    202.56    204.88    2.31
 55    204.88    207.19    2.31
 56    207.19    209.50    2.31
 57    209.50    211.81    2.31
 58    211.81    214.12    2.31
 59    214.12    216.44    2.31
 60    216.44    218.75    2.31
 61    218.75    221.06    2.31
 62    221.06    223.38    2.31
 63    223.38    225.69    2.31
 64    225.69    228.00    2.31
 65    228.00    230.31    2.31
 66    230.31    232.62    2.31
 67    232.62    234.94    2.31
 68    234.94    237.25    2.31
 69    237.25    239.56    2.31
 70    239.56    241.88    2.31
 71    241.88    244.19    2.31
 72    244.19    246.50    2.31
 73    246.50    248.81    2.31
 74    248.81    251.12    2.31
 75    251.12    253.44    2.31
 76    253.44    255.75    2.31
 77    255.75    258.06    2.31
 78    258.06    260.38    2.31
 79    260.38    262.69    2.31
 80    262.69    265.00    2.31
 81    265.00    267.31    2.31
 82    267.31    269.62    2.31
 83    269.62    271.94    2.31
 84    271.94    274.25    2.31
 85    274.25    276.56    2.31
 86    276.56    278.88    2.31
 87    278.88    281.19    2.31
 88    281.19    283.50    2.31
 89    283.50    285.81    2.31
 90    285.81    288.12    2.31
 91    288.12    290.44    2.31
 92    290.44    292.75    2.31
 93    292.75    295.06    2.31
 94    295.06    297.38    2.31
 95    297.38    299.69    2.31
 96    299.69    302.00    2.31
 97    302.00    304.31    2.31
 98    304.31    306.62    2.31
 99    306.62    308.94    2.31
100    308.94    311.25    2.31
101    311.25    313.56    2.31
102    313.56    315.88    2.31
103    315.88    318.19    2.31
104    318.19    320.50    2.31
105    320.50    322.81    2.31
106    322.81    325.12    2.31
107    325.12    327.44    2.31
108    327.44    329.75    2.31
109    329.75    332.06    2.31
110    332.06    334.38    2.31
111    334.38    336.69    2.31
112    336.69    339.00    2.31
113    339.00    341.31    2.31
114    341.31    343.62    2.31
115    343.62    345.94    2.31
116    345.94    348.25    2.31
117    348.25    350.56    2.31
118    350.56    352.88    2.31
119    352.88    355.19    2.31
120    355.19    357.50    2.31
121    357.50    359.81    2.31
122    359.81    362.12    2.31
123    362.12    364.44    2.31
124    364.44    366.75    2.31
125    366.75    369.06    2.31
126    369.06    371.38    2.31
127    371.38    373.69    2.31
128    373.69    376.00    2.31
129    376.00    378.31    2.31
130    378.31    380.62    2.31
131    380.62    382.94    2.31
132    382.94    385.25    2.31
133    385.25    387.56    2.31
134    387.56    389.88    2.31
135    389.88    392.19    2.31
136    392.19    394.50    2.31
137    394.50    396.81    2.31
138    396.81    399.12    2.31
139    399.12    401.44    2.31
140    401.44    403.75    2.31
141    403.75    406.06    2.31
142    406.06    408.38    2.31
143    408.38    410.69    2.31
144    410.69    413.00    2.31
145    413.00    415.31    2.31
146    415.31    417.62    2.31
147    417.62    419.94    2.31
148    419.94    422.25    2.31
149    422.25    424.56    2.31
150    424.56    426.88    2.31
151    426.88    429.19    2.31
152    429.19    431.50    2.31
153    431.50    433.81    2.31
154    433.81    436.12    2.31
155    436.12    438.44    2.31
156    438.44    440.75    2.31
157    440.75    443.06    2.31
158    443.06    445.38    2.31
159    445.38    447.69    2.31
160    447.69    450.00    2.31
161    450.00    452.31    2.31
162    452.31    454.62    2.31
163    454.62    456.94    2.31
164    456.94    459.25    2.31
165    459.25    461.56    2.31
166    461.56    463.88    2.31
167    463.88    466.19    2.31
168    466.19    468.50    2.31
169    468.50    470.81    2.31
170    470.81    473.12    2.31
171    473.12    475.44    2.31
172    475.44    477.75    2.31
173    477.75    480.06    2.31
174    480.06    482.38    2.31
175    482.38    484.69    2.31
176    484.69    487.00    2.31
177    487.00    489.31    2.31
178    489.31    491.62    2.31
179    491.62    493.94    2.31
180    493.94    496.25    2.31
181    496.25    498.56    2.31
182    498.56    500.88    2.31
183    500.88    503.19    2.31
184    503.19    505.50    2.31
185    505.50    507.81    2.31
186    507.81    510.12    2.31
187    510.12    512.44    2.31
188    512.44    514.75    2.31
189    514.75    517.06    2.31
190    517.06    519.38    2.31
191    519.38    521.69    2.31
192    521.69    524.00    2.31
193    524.00    526.31    2.31
194    526.31    528.62    2.31
195    528.62    530.94    2.31
196    530.94    533.25    2.31
197    533.25    535.56    2.31
198    535.56    537.88    2.31
199    537.88    540.19    2.31
200    540.19    542.50    2.31
201    542.50    544.81    2.31
202    544.81    547.12    2.31
203    547.12    549.44    2.31
204    549.44    551.75    2.31
205    551.75    554.06    2.31
206    554.06    556.38    2.31
207    556.38    558.69    2.31
208    558.69    561.00    2.31
209    561.00    563.31    2.31
210    563.31    565.62    2.31
211    565.62    567.94    2.31
212    567.94    570.25    2.31
213    570.25    572.56    2.31
214    572.56    574.88    2.31
215    574.88    577.19    2.31
216    577.19    579.50    2.31
217    579.50    581.81    2.31
218    581.81    584.12    2.31
219    584.12    586.44    2.31
220    586.44    588.75    2.31
221    588.75    591.06    2.31
222    591.06    593.38    2.31
223    593.38    595.69    2.31
224    595.69    598.00    2.31
225    598.00    600.31    2.31
226    600.31    602.62    2.31
227    602.62    604.94    2.31
228    604.94    607.25    2.31
229    607.25    609.56    2.31
230    609.56    611.88    2.31
231    611.88    614.19    2.31
232    614.19    616.50    2.31
233    616.50    618.81    2.31
234    618.81    621.12    2.31
235    621.12    623.44    2.31
236    623.44    625.75    2.31
237    625.75    628.06    2.31
238    628.06    630.38    2.31
239    630.38    632.69    2.31
240    632.69    635.00    2.31
241    635.00    637.31    2.31
242    637.31    639.62    2.31
243    639.62    641.94    2.31
244    641.94    644.25    2.31
245    644.25    646.56    2.31
246    646.56    648.88    2.31
247    648.88    651.19    2.31
248    651.19    653.50    2.31
249    653.50    655.81    2.31
250    655.81    658.12    2.31
251    658.12    660.44    2.31
252    660.44    662.75    2.31
253    662.75    665.06    2.31
254    665.06    667.38    2.31
255    667.38    669.69    2.31
256    669.69    672.00    2.31
257    672.00    674.31    2.31
258    674.31    676.62    2.31
259    676.62    678.94    2.31
260    678.94    681.25    2.31
261    681.25    683.56    2.31
262    683.56    685.88    2.31
263    685.88    688.19    2.31
264    688.19    690.50    2.31
265    690.50    692.81    2.31
266    692.81    695.12    2.31
267    695.12    697.44    2.31
268    697.44    699.75    2.31
269    699.75    702.06    2.31
270    702.06    704.38    2.31
271    704.38    706.69    2.31
272    706.69    709.00    2.31
273    709.00    711.31    2.31
274    711.31    713.62    2.31
275    713.62    715.94    2.31
276    715.94    718.25    2.31
277    718.25    720.56    2.31
278    720.56    722.88    2.31
279    722.88    725.19    2.31
280    725.19    727.50    2.31
281    727.50    729.81    2.31
282    729.81    732.12    2.31
283    732.12    734.44    2.31
284    734.44    736.75    2.31
285    736.75    739.06    2.31
286    739.06    741.38    2.31
287    741.38    743.69    2.31
288    743.69    746.00    2.31
289    746.00    748.31    2.31
290    748.31    750.62    2.31
291    750.62    752.94    2.31
292    752.94    755.25    2.31
293    755.25    757.56    2.31
294    757.56    759.88    2.31
295    759.88    762.19    2.31
296    762.19    764.50    2.31
297    764.50    766.81    2.31
298    766.81    769.12    2.31
299    769.12    771.44    2.31
300    771.44    773.75    2.31
301    773.75    776.06    2.31
302    776.06    778.38    2.31
303    778.38    780.69    2.31
304    780.69    783.00    2.31
305    783.00    785.31    2.31
306    785.31    787.62    2.31
307    787.62    789.94    2.31
308    789.94    792.25    2.31
309    792.25    794.56    2.31
310    794.56    796.88    2.31
311    796.88    799.19    2.31
312    799.19    801.50    2.31
313    801.50    803.81    2.31
314    803.81    806.12    2.31
315    806.12    808.44    2.31
316    808.44    810.75    2.31
317    810.75    813.06    2.31
318    813.06    815.38    2.31
319    815.38    817.69    2.31
320    817.69    820.00    2.31
321    820.00    822.31    2.31
322    822.31    824.62    2.31
323    824.62    826.94    2.31
324    826.94    829.25    2.31
325    829.25    831.56    2.31
326    831.56    833.88    2.31
327    833.88    836.19    2.31
328    836.19    838.50    2.31
329    838.50    840.81    2.31
330    840.81    843.12    2.31
331    843.12    845.44    2.31
332    845.44    847.75    2.31
333    847.75    850.06    2.31
334    850.06    852.38    2.31
335    852.38    854.69    2.31
336    854.69    857.00    2.31
337    857.00    859.31    2.31
338    859.31    861.62    2.31
339    861.62    863.94    2.31
340    863.94    866.25    2.31
341    866.25    868.56    2.31
342    868.56    870.88    2.31
343    870.88    873.19    2.31
344    873.19    875.50    2.31
345    875.50    877.81    2.31
346    877.81    880.12    2.31
347    880.12    882.44    2.31
348    882.44    884.75    2.31
349    884.75    887.06    2.31
350    887.06    889.38    2.31
351    889.38    891.69    2.31
352    891.69    894.00    2.31
353    894.00    896.31    2.31
354    896.31    898.62    2.31
355    898.62    900.94    2.31
356    900.94    903.25    2.31
357    903.25    905.56    2.31
358    905.56    907.88    2.31
359    907.88    910.19    2.31
360    910.19    912.50    2.31
361    912.50    914.81    2.31
362    914.81    917.12    2.31
363    917.12    919.44    2.31
364    919.44    921.75    2.31
365    921.75    924.06    2.31
366    924.06    926.38    2.31
367    926.38    928.69    2.31
368    928.69    931.00    2.31
369    931.00    933.31    2.31
370    933.31    935.62    2.31
371    935.62    937.94    2.31
372    937.94    940.25    2.31
373    940.25    942.56    2.31
374    942.56    944.88    2.31
375    944.88    947.19    2.31
376    947.19    949.50    2.31
377    949.50    951.81    2.31
378    951.81    954.12    2.31
379    954.12    956.44    2.31
380    956.44    958.75    2.31
381    958.75    961.06    2.31
382    961.06    963.38    2.31
383    963.38    965.69    2.31
384    965.69    968.00    2.31
385    968.00    970.31    2.31
386    970.31    972.62    2.31
387    972.62    974.94    2.31
388    974.94    977.25    2.31
389    977.25    979.56    2.31
390    979.56    981.88    2.31
391    981.88    984.19    2.31
392    984.19    986.50    2.31
393    986.50    988.81    2.31
394    988.81    991.12    2.31
395    991.12    993.44    2.31
396    993.44    995.75    2.31
397    995.75    998.06    2.31
398    998.06   1000.38    2.31
399   1000.38   1002.69    2.31
400   1002.69   1005.00    2.31
401   1005.00   1007.31    2.31
402   1007.31   1009.62    2.31
403   1009.62   1011.94    2.31
404   1011.94   1014.25    2.31
405   1014.25   1016.56    2.31
406   1016.56   1018.88    2.31
407   1018.88   1021.19    2.31
408   1021.19   1023.50    2.31
409   1023.50   1025.81    2.31
410   1025.81   1028.12    2.31
411   1028.12   1030.44    2.31
412   1030.44   1032.75    2.31
413   1032.75   1035.06    2.31
414   1035.06   1037.38    2.31
415   1037.38   1039.69    2.31
416   1039.69   1042.00    2.31
417   1042.00   1044.31    2.31
418   1044.31   1046.62    2.31
419   1046.62   1048.94    2.31
420   1048.94   1051.25    2.31
421   1051.25   1053.56    2.31
422   1053.56   1055.88    2.31
423   1055.88   1058.19    2.31
424   1058.19   1060.50    2.31
425   1060.50   1062.81    2.31
426   1062.81   1065.12    2.31
427   1065.12   1067.44    2.31
428   1067.44   1069.75    2.31
429   1069.75   1072.06    2.31
430   1072.06   1074.38    2.31
431   1074.38   1076.69    2.31
432   1076.69   1079.00    2.31
433   1079.00   1081.31    2.31
434   1081.31   1083.62    2.31
435   1083.62   1085.94    2.31
436   1085.94   1088.25    2.31
437   1088.25   1090.56    2.31
438   1090.56   1092.88    2.31
439   1092.88   1095.19    2.31
440   1095.19   1097.50    2.31
441   1097.50   1099.81    2.31
442   1099.81   1102.12    2.31
443   1102.12   1104.44    2.31
444   1104.44   1106.75    2.31
445   1106.75   1109.06    2.31
446   1109.06   1111.38    2.31
447   1111.38   1113.69    2.31
448   1113.69   1116.00    2.31
449   1116.00   1118.31    2.31
450   1118.31   1120.62    2.31
451   1120.62   1122.94    2.31
452   1122.94   1125.25    2.31
453   1125.25   1127.56    2.31
454   1127.56   1129.88    2.31
455   1129.88   1132.19    2.31
456   1132.19   1134.50    2.31
457   1134.50   1136.81    2.31
458   1136.81   1139.12    2.31
459   1139.12   1141.44    2.31
460   1141.44   1143.75    2.31
461   1143.75   1146.06    2.31
462   1146.06   1148.38    2.31
463   1148.38   1150.69    2.31
464   1150.69   1153.00    2.31
465   1153.00   1155.31    2.31
466   1155.31   1157.62    2.31
467   1157.62   1159.94    2.31
468   1159.94   1162.25    2.31
469   1162.25   1164.56    2.31
470   1164.56   1166.88    2.31
471   1166.88   1169.19    2.31
472   1169.19   1171.50    2.31
473   1171.50   1173.81    2.31
474   1173.81   1176.12    2.31
475   1176.12   1178.44    2.31
476   1178.44   1180.75    2.31
477   1180.75   1183.06    2.31
478   1183.06   1185.38    2.31
479   1185.38   1187.69    2.31
480   1187.69   1190.00    2.31
481   1190.00   1192.31    2.31
482   1192.31   1194.62    2.31
483   1194.62   1196.94    2.31
484   1196.94   1199.25    2.31
485   1199.25   1201.56    2.31
486   1201.56   1203.88    2.31
487   1203.88   1206.19    2.31
488   1206.19   1208.50    2.31
489   1208.50   1210.81    2.31
490   1210.81   1213.12    2.31
491   1213.12   1215.44    2.31
492   1215.44   1217.75    2.31
493   1217.75   1220.06    2.31
494   1220.06   1222.38    2.31
495   1222.38   1224.69    2.31
496   1224.69   1227.00    2.31
497   1227.00   1229.31    2.31
498   1229.31   1231.62    2.31
499   1231.62   1233.94    2.31
500   1233.94   1236.25    2.31
501   1236.25   1238.56    2.31
502   1238.56   1240.88    2.31
503   1240.88   1243.19    2.31
504   1243.19   1245.50    2.31
505   1245.50   1247.81    2.31
506   1247.81   1250.12    2.31
507   1250.12   1252.44    2.31
508   1252.44   1254.75    2.31
509   1254.75   1257.06    2.31
510   1257.06   1259.38    2.31
511   1259.38   1261.69    2.31
512   1261.69   1264.00    2.31
513   1264.00   1266.31    2.31
514   1266.31   1268.62    2.31
515   1268.62   1270.94    2.31
516   1270.94   1273.25    2.31
517   1273.25   1275.56    2.31
518   1275.56   1277.88    2.31
519   1277.88   1280.19    2.31
520   1280.19   1282.50    2.31
521   1282.50   1284.81    2.31
522   1284.81   1287.12    2.31
523   1287.12   1289.44    2.31
524   1289.44   1291.75    2.31
525   1291.75   1294.06    2.31
526   1294.06   1296.38    2.31
527   1296.38   1298.69    2.31
528   1298.69   1301.00    2.31
529   1301.00   1303.31    2.31
530   1303.31   1305.62    2.31
531   1305.62   1307.94    2.31
532   1307.94   1310.25    2.31
533   1310.25   1312.56    2.31
534   1312.56   1314.88    2.31
535   1314.88   1317.19    2.31
536   1317.19   1319.50    2.31
537   1319.50   1321.81    2.31
538   1321.81   1324.12    2.31
539   1324.12   1326.44    2.31
540   1326.44   1328.75    2.31
541   1328.75   1331.06    2.31
542   1331.06   1333.38    2.31
543   1333.38   1335.69    2.31
544   1335.69   1338.00    2.31
545   1338.00   1340.31    2.31
546   1340.31   1342.62    2.31
547   1342.62   1344.94    2.31
548   1344.94   1347.25    2.31
549   1347.25   1349.56    2.31
550   1349.56   1351.88    2.31
551   1351.88   1354.19    2.31
552   1354.19   1356.50    2.31
553   1356.50   1358.81    2.31
554   1358.81   1361.12    2.31
555   1361.12   1363.44    2.31
556   1363.44   1365.75    2.31
557   1365.75   1368.06    2.31
558   1368.06   1370.38    2.31
559   1370.38   1372.69    2.31
560   1372.69   1375.00    2.31
561   1375.00   1377.31    2.31
562   1377.31   1379.62    2.31
563   1379.62   1381.94    2.31
564   1381.94   1384.25    2.31
565   1384.25   1386.56    2.31
566   1386.56   1388.88    2.31
567   1388.88   1391.19    2.31
568   1391.19   1393.50    2.31
569   1393.50   1395.81    2.31
570   1395.81   1398.12    2.31
571   1398.12   1400.44    2.31
572   1400.44   1402.75    2.31
573   1402.75   1405.06    2.31
574   1405.06   1407.38    2.31
575   1407.38   1409.69    2.31
576   1409.69   1412.00    2.31
577   1412.00   1414.31    2.31
578   1414.31   1416.62    2.31
579   1416.62   1418.94    2.31
580   1418.94   1421.25    2.31
581   1421.25   1423.56    2.31
582   1423.56   1425.88    2.31
583   1425.88   1428.19    2.31
584   1428.19   1430.50    2.31
585   1430.50   1432.81    2.31
586   1432.81   1435.12    2.31
587   1435.12   1437.44    2.31
588   1437.44   1439.75    2.31
589   1439.75   1442.06    2.31
590   1442.06   1444.38    2.31
591   1444.38   1446.69    2.31
592   1446.69   1449.00    2.31
593   1449.00   1451.31    2.31
594   1451.31   1453.62    2.31
595   1453.62   1455.94    2.31
596   1455.94   1458.25    2.31
597   1458.25   1460.56    2.31
598   1460.56   1462.88    2.31
599   1462.88   1465.19    2.31
600   1465.19   1467.50    2.31
601   1467.50   1469.81    2.31
602   1469.81   1472.12    2.31
603   1472.12   1474.44    2.31
604   1474.44   1476.75    2.31
605   1476.75   1479.06    2.31
606   1479.06   1481.38    2.31
607   1481.38   1483.69    2.31
608   1483.69   1486.00    2.31
609   1486.00   1488.31    2.31
610   1488.31   1490.62    2.31
611   1490.62   1492.94    2.31
612   1492.94   1495.25    2.31
613   1495.25   1497.56    2.31
614   1497.56   1499.88    2.31
615   1499.88   1502.19    2.31
616   1502.19   1504.50    2.31
617   1504.50   1506.81    2.31
618   1506.81   1509.12    2.31
619   1509.12   1511.44    2.31
620   1511.44   1513.75    2.31
621   1513.75   1516.06    2.31
622   1516.06   1518.38    2.31
623   1518.38   1520.69    2.31
624   1520.69   1523.00    2.31
625   1523.00   1525.31    2.31
626   1525.31   1527.62    2.31
627   1527.62   1529.94    2.31
628   1529.94   1532.25    2.31
629   1532.25   1534.56    2.31
630   1534.56   1536.88    2.31
631   1536.88   1539.19    2.31
632   1539.19   1541.50    2.31
633   1541.50   1543.81    2.31
634   1543.81   1546.12    2.31
635   1546.12   1548.44    2.31
636   1548.44   1550.75    2.31
637   1550.75   1553.06    2.31
638   1553.06   1555.38    2.31
639   1555.38   1557.69    2.31
640   1557.69   1560.00    2.31
641   1560.00   1562.31    2.31
642   1562.31   1564.62    2.31
643   1564.62   1566.94    2.31
644   1566.94   1569.25    2.31
645   1569.25   1571.56    2.31
646   1571.56   1573.88    2.31
647   1573.88   1576.19    2.31
648   1576.19   1578.50    2.31
649   1578.50   1580.81    2.31
650   1580.81   1583.12    2.31
651   1583.12   1585.44    2.31
652   1585.44   1587.75    2.31
653   1587.75   1590.06    2.31
654   1590.06   1592.38    2.31
655   1592.38   1594.69    2.31
656   1594.69   1597.00    2.31
657   1597.00   1599.31    2.31
658   1599.31   1601.62    2.31
659   1601.62   1603.94    2.31
660   1603.94   1606.25    2.31
661   1606.25   1608.56    2.31
662   1608.56   1610.88    2.31
663   1610.88   1613.19    2.31
664   1613.19   1615.50    2.31
665   1615.50   1617.81    2.31
666   1617.81   1620.12    2.31
667   1620.12   1622.44    2.31
668   1622.44   1624.75    2.31
669   1624.75   1627.06    2.31
670   1627.06   1629.38    2.31
671   1629.38   1631.69    2.31
672   1631.69   1634.00    2.31
673   1634.00   1636.31    2.31
674   1636.31   1638.62    2.31
675   1638.62   1640.94    2.31
676   1640.94   1643.25    2.31
677   1643.25   1645.56    2.31
678   1645.56   1647.88    2.31
679   1647.88   1650.19    2.31
680   1650.19   1652.50    2.31
681   1652.50   1654.81    2.31
682   1654.81   1657.12    2.31
683   1657.12   1659.44    2.31
684   1659.44   1661.75    2.31
685   1661.75   1664.06    2.31
686   1664.06   1666.38    2.31
687   1666.38   1668.69    2.31
688   1668.69   1671.00    2.31
689   1671.00   1673.31    2.31
690   1673.31   1675.62    2.31
691   1675.62   1677.94    2.31
692   1677.94   1680.25    2.31
693   1680.25   1682.56    2.31
694   1682.56   1684.88    2.31
695   1684.88   1687.19    2.31
696   1687.19   1689.50    2.31
697   1689.50   1691.81    2.31
698   1691.81   1694.12    2.31
699   1694.12   1696.44    2.31
700   1696.44   1698.75    2.31
701   1698.75   1701.06    2.31
702   1701.06   1703.38    2.31
703   1703.38   1705.69    2.31
704   1705.69   1708.00    2.31
705   1708.00   1710.31    2.31
706   1710.31   1712.62    2.31
707   1712.62   1714.94    2.31
708   1714.94   1717.25    2.31
709   1717.25   1719.56    2.31
710   1719.56   1721.88    2.31
711   1721.88   1724.19    2.31
712   1724.19   1726.50    2.31
713   1726.50   1728.81    2.31
714   1728.81   1731.12    2.31
715   1731.12   1733.44    2.31
716   1733.44   1735.75    2.31
717   1735.75   1738.06    2.31
718   1738.06   1740.38    2.31
719   1740.38   1742.69    2.31
720   1742.69   1745.00    2.31
721   1745.00   1747.31    2.31
722   1747.31   1749.62    2.31
723   1749.62   1751.94    2.31
724   1751.94   1754.25    2.31
725   1754.25   1756.56    2.31
726   1756.56   1758.88    2.31
727   1758.88   1761.19    2.31
728   1761.19   1763.50    2.31
729   1763.50   1765.81    2.31
730   1765.81   1768.12    2.31
731   1768.12   1770.44    2.31
732   1770.44   1772.75    2.31
733   1772.75   1775.06    2.31
734   1775.06   1777.38    2.31
735   1777.38   1779.69    2.31
736   1779.69   1782.00    2.31
737   1782.00   1784.31    2.31
738   1784.31   1786.62    2.31
739   1786.62   1788.94    2.31
740   1788.94   1791.25    2.31
741   1791.25   1793.56    2.31
742   1793.56   1795.88    2.31
743   1795.88   1798.19    2.31
744   1798.19   1800.50    2.31
745   1800.50   1802.81    2.31
746   1802.81   1805.12    2.31
747   1805.12   1807.44    2.31
748   1807.44   1809.75    2.31
749   1809.75   1812.06    2.31
750   1812.06   1814.38    2.31
751   1814.38   1816.69    2.31
752   1816.69   1819.00    2.31
753   1819.00   1821.31    2.31
754   1821.31   1823.62    2.31
755   1823.62   1825.94    2.31
756   1825.94   1828.25    2.31
757   1828.25   1830.56    2.31
758   1830.56   1832.88    2.31
759   1832.88   1835.19    2.31
760   1835.19   1837.50    2.31
761   1837.50   1839.81    2.31
762   1839.81   1842.12    2.31
763   1842.12   1844.44    2.31
764   1844.44   1846.75    2.31
765   1846.75   1849.06    2.31
766   1849.06   1851.38    2.31
767   1851.38   1853.69    2.31
768   1853.69   1856.00    2.31
769   1856.00   1858.31    2.31
770   1858.31   1860.62    2.31
771   1860.62   1862.94    2.31
772   1862.94   1865.25    2.31
773   1865.25   1867.56    2.31
774   1867.56   1869.88    2.31
775   1869.88   1872.19    2.31
776   1872.19   1874.50    2.31
777   1874.50   1876.81    2.31
778   1876.81   1879.12    2.31
779   1879.12   1881.44    2.31
780   1881.44   1883.75    2.31
781   1883.75   1886.06    2.31
782   1886.06   1888.38    2.31
783   1888.38   1890.69    2.31
784   1890.69   1893.00    2.31
785   1893.00   1895.31    2.31
786   1895.31   1897.62    2.31
787   1897.62   1899.94    2.31
788   1899.94   1902.25    2.31
789   1902.25   1904.56    2.31
790   1904.56   1906.88    2.31
791   1906.88   1909.19    2.31
792   1909.19   1911.50    2.31
793   1911.50   1913.81    2.31
794   1913.81   1916.12    2.31
795   1916.12   1918.44    2.31
796   1918.44   1920.75    2.31
797   1920.75   1923.06    2.31
798   1923.06   1925.38    2.31
799   1925.38   1927.69    2.31
800   1927.69   1930.00    2.31
801   1930.00   1932.31    2.31
802   1932.31   1934.62    2.31
803   1934.62   1936.94    2.31
804   1936.94   1939.25    2.31
805   1939.25   1941.56    2.31
806   1941.56   1943.88    2.31
807   1943.88   1946.19    2.31
808   1946.19   1948.50    2.31
809   1948.50   1950.81    2.31
810   1950.81   1953.12    2.31
811   1953.12   1955.44    2.31
812   1955.44   1957.75    2.31
813   1957.75   1960.06    2.31
814   1960.06   1962.38    2.31
815   1962.38   1964.69    2.31
816   1964.69   1967.00    2.31
817   1967.00   1969.31    2.31
818   1969.31   1971.62    2.31
819   1971.62   1973.94    2.31
820   1973.94   1976.25    2.31
821   1976.25   1978.56    2.31
822   1978.56   1980.88    2.31
823   1980.88   1983.19    2.31
824   1983.19   1985.50    2.31
825   1985.50   1987.81    2.31
826   1987.81   1990.12    2.31
827   1990.12   1992.44    2.31
828   1992.44   1994.75    2.31
829   1994.75   1997.06    2.31
830   1997.06   1999.38    2.31
831   1999.38   2001.69    2.31
832   2001.69   2004.00    2.31
833   2004.00   2006.31    2.31
834   2006.31   2008.62    2.31
835   2008.62   2010.94    2.31
836   2010.94   2013.25    2.31
837   2013.25   2015.56    2.31
838   2015.56   2017.88    2.31
839   2017.88   2020.19    2.31
840   2020.19   2022.50    2.31
841   2022.50   2024.81    2.31
842   2024.81   2027.12    2.31
843   2027.12   2029.44    2.31
844   2029.44   2031.75    2.31
845   2031.75   2034.06    2.31
846   2034.06   2036.38    2.31
847   2036.38   2038.69    2.31
848   2038.69   2041.00    2.31
849   2041.00   2043.31    2.31
850   2043.31   2045.62    2.31
851   2045.62   2047.94    2.31
852   2047.94   2050.25    2.31
853   2050.25   2052.56    2.31
854   2052.56   2054.88    2.31
855   2054.88   2057.19    2.31
856   2057.19   2059.50    2.31
857   2059.50   2061.81    2.31
858   2061.81   2064.12    2.31
859   2064.12   2066.44    2.31
860   2066.44   2068.75    2.31
861   2068.75   2071.06    2.31
862   2071.06   2073.38    2.31
863   2073.38   2075.69    2.31
864   2075.69   2078.00    2.31
865   2078.00   2080.31    2.31
866   2080.31   2082.62    2.31
867   2082.62   2084.94    2.31
868   2084.94   2087.25    2.31
869   2087.25   2089.56    2.31
870   2089.56   2091.88    2.31
871   2091.88   2094.19    2.31
872   2094.19   2096.50    2.31
873   2096.50   2098.81    2.31
874   2098.81   2101.12    2.31
875   2101.12   2103.44    2.31
876   2103.44   2105.75    2.31
877   2105.75   2108.06    2.31
878   2108.06   2110.38    2.31
879   2110.38   2112.69    2.31
880   2112.69   2115.00    2.31
881   2115.00   2117.31    2.31
882   2117.31   2119.62    2.31
883   2119.62   2121.94    2.31
884   2121.94   2124.25    2.31
885   2124.25   2126.56    2.31
886   2126.56   2128.88    2.31
887   2128.88   2131.19    2.31
888   2131.19   2133.50    2.31
889   2133.50   2135.81    2.31
890   2135.81   2138.12    2.31
891   2138.12   2140.44    2.31
892   2140.44   2142.75    2.31
893   2142.75   2145.06    2.31
894   2145.06   2147.38    2.31
895   2147.38   2149.69    2.31
896   2149.69   2152.00    2.31
897   2152.00   2154.31    2.31
898   2154.31   2156.62    2.31
899   2156.62   2158.94    2.31
900   2158.94   2161.25    2.31
901   2161.25   2163.56    2.31
902   2163.56   2165.88    2.31
903   2165.88   2168.19    2.31
904   2168.19   2170.50    2.31
905   2170.50   2172.81    2.31
906   2172.81   2175.12    2.31
907   2175.12   2177.44    2.31
908   2177.44   2179.75    2.31
909   2179.75   2182.06    2.31
910   2182.06   2184.38    2.31
911   2184.38   2186.69    2.31
912   2186.69   2189.00    2.31
913   2189.00   2191.31    2.31
914   2191.31   2193.62    2.31
915   2193.62   2195.94    2.31
916   2195.94   2198.25    2.31
917   2198.25   2200.56    2.31
918   2200.56   2202.88    2.31
919   2202.88   2205.19    2.31
920   2205.19   2207.50    2.31
921   2207.50   2209.81    2.31
922   2209.81   2212.12    2.31
923   2212.12   2214.44    2.31
924   2214.44   2216.75    2.31
925   2216.75   2219.06    2.31
926   2219.06   2221.38    2.31
927   2221.38   2223.69    2.31
928   2223.69   2226.00    2.31
929   2226.00   2228.31    2.31
930   2228.31   2230.62    2.31
931   2230.62   2232.94    2.31
932   2232.94   2235.25    2.31
933   2235.25   2237.56    2.31
934   2237.56   2239.88    2.31
935   2239.88   2242.19    2.31
936   2242.19   2244.50    2.31
937   2244.50   2246.81    2.31
938   2246.81   2249.12    2.31
939   2249.12   2251.44    2.31
940   2251.44   2253.75    2.31
941   2253.75   2256.06    2.31
942   2256.06   2258.38    2.31
943   2258.38   2260.69    2.31
944   2260.69   2263.00    2.31
945   2263.00   2265.31    2.31
946   2265.31   2267.62    2.31
947   2267.62   2269.94    2.31
948   2269.94   2272.25    2.31
949   2272.25   2274.56    2.31
950   2274.56   2276.88    2.31
951   2276.88   2279.19    2.31
952   2279.19   2281.50    2.31
953   2281.50   2283.81    2.31
954   2283.81   2286.12    2.31
955   2286.12   2288.44    2.31
956   2288.44   2290.75    2.31
957   2290.75   2293.06    2.31
958   2293.06   2295.38    2.31
959   2295.38   2297.69    2.31
960   2297.69   2300.00    2.31
961   2300.00   2302.31    2.31
962   2302.31   2304.62    2.31
963   2304.62   2306.94    2.31
964   2306.94   2309.25    2.31
965   2309.25   2311.56    2.31
966   2311.56   2313.88    2.31
967   2313.88   2316.19    2.31
968   2316.19   2318.50    2.31
969   2318.50   2320.81    2.31
970   2320.81   2323.12    2.31
971   2323.12   2325.44    2.31
972   2325.44   2327.75    2.31
973   2327.75   2330.06    2.31
974   2330.06   2332.38    2.31
975   2332.38   2334.69    2.31
976   2334.69   2337.00    2.31
977   2337.00   2339.31    2.31
978   2339.31   2341.62    2.31
979   2341.62   2343.94    2.31
980   2343.94   2346.25    2.31
981   2346.25   2348.56    2.31
982   2348.56   2350.88    2.31
983   2350.88   2353.19    2.31
984   2353.19   2355.50    2.31
985   2355.50   2357.81    2.31
986   2357.81   2360.12    2.31
987   2360.12   2362.44    2.31
988   2362.44   2364.75    2.31
989   2364.75   2367.06    2.31
990   2367.06   2369.38    2.31
991   2369.38   2371.69    2.31
992   2371.69   2374.00    2.31
993   2374.00   2376.31    2.31
994   2376.31   2378.62    2.31
995   2378.62   2380.94    2.31
996   2380.94   2383.25    2.31
997   2383.25   2385.56    2.31
998   2385.56   2387.88    2.31
999   2387.88   2390.19    2.31
1000   2390.19   2392.50    2.31
1001   2392.50   2394.81    2.31
1002   2394.81   2397.12    2.31
1003   2397.12   2399.44    2.31
1004   2399.44   2401.75    2.31
1005   2401.75   2404.06    2.31
1006   2404.06   2406.38    2.31
1007   2406.38   2408.69    2.31
1008   2408.69   2411.00    2.31
1009   2411.00   2413.31    2.31
1010   2413.31   2415.62    2.31
1011   2415.62   2417.94    2.31
1012   2417.94   2420.25    2.31
1013   2420.25   2422.56    2.31
1014   2422.56   2424.88    2.31
1015   2424.88   2427.19    2.31
1016   2427.19   2429.50    2.31
1017   2429.50   2431.81    2.31
1018   2431.81   2434.12    2.31
1019   2434.12   2436.44    2.31
1020   2436.44   2438.75    2.31
1021   2438.75   2441.06    2.31
1022   2441.06   2443.38    2.31
1023   2443.38   2445.69    2.31
1024   2445.69   2448.00    2.31
1025   2448.00   2450.31    2.31
1026   2450.31   2452.62    2.31
1027   2452.62   2454.94    2.31
1028   2454.94   2457.25    2.31
1029   2457.25   2459.56    2.31
1030   2459.56   2461.88    2.31
1031   2461.88   2464.19    2.31
1032   2464.19   2466.50    2.31
1033   2466.50   2468.81    2.31
1034   2468.81   2471.12    2.31
1035   2471.12   2473.44    2.31
1036   2473.44   2475.75    2.31
1037   2475.75   2478.06    2.31
1038   2478.06   2480.38    2.31
1039   2480.38   2482.69    2.31
1040   2482.69   2485.00    2.31
1041   2485.00   2487.31    2.31
1042   2487.31   2489.62    2.31
1043   2489.62   2491.94    2.31
1044   2491.94   2494.25    2.31
1045   2494.25   2496.56    2.31
1046   2496.56   2498.88    2.31
1047   2498.88   2501.19    2.31
1048   2501.19   2503.50    2.31
1049   2503.50   2505.81    2.31
1050   2505.81   2508.12    2.31
1051   2508.12   2510.44    2.31
1052   2510.44   2512.75    2.31
1053   2512.75   2515.06    2.31
1054   2515.06   2517.38    2.31
1055   2517.38   2519.69    2.31
1056   2519.69   2522.00    2.31
1057   2522.00   2524.31    2.31
1058   2524.31   2526.62    2.31
1059   2526.62   2528.94    2.31
1060   2528.94   2531.25    2.31
1061   2531.25   2533.56    2.31
1062   2533.56   2535.88    2.31
1063   2535.88   2538.19    2.31
1064   2538.19   2540.50    2.31
1065   2540.50   2542.81    2.31
1066   2542.81   2545.12    2.31
1067   2545.12   2547.44    2.31
1068   2547.44   2549.75    2.31
1069   2549.75   2552.06    2.31
1070   2552.06   2554.38    2.31
1071   2554.38   2556.69    2.31
1072   2556.69   2559.00    2.31
1073   2559.00   2561.31    2.31
1074   2561.31   2563.62    2.31
1075   2563.62   2565.94    2.31
1076   2565.94   2568.25    2.31
1077   2568.25   2570.56    2.31
1078   2570.56   2572.88    2.31
1079   2572.88   2575.19    2.31
1080   2575.19   2577.50    2.31
1081   2577.50   2579.81    2.31
1082   2579.81   2582.12    2.31
1083   2582.12   2584.44    2.31
1084   2584.44   2586.75    2.31
1085   2586.75   2589.06    2.31
1086   2589.06   2591.38    2.31
1087   2591.38   2593.69    2.31
1088   2593.69   2596.00    2.31
1089   2596.00   2598.31    2.31
1090   2598.31   2600.62    2.31
1091   2600.62   2602.94    2.31
1092   2602.94   2605.25    2.31
1093   2605.25   2607.56    2.31
1094   2607.56   2609.88    2.31
1095   2609.88   2612.19    2.31
1096   2612.19   2614.50    2.31
1097   2614.50   2616.81    2.31
1098   2616.81   2619.12    2.31
1099   2619.12   2621.44    2.31
1100   2621.44   2623.75    2.31
1101   2623.75   2626.06    2.31
1102   2626.06   2628.38    2.31
1103   2628.38   2630.69    2.31
1104   2630.69   2633.00    2.31
1105   2633.00   2635.31    2.31
1106   2635.31   2637.62    2.31
1107   2637.62   2639.94    2.31
1108   2639.94   2642.25    2.31
1109   2642.25   2644.56    2.31
1110   2644.56   2646.88    2.31
1111   2646.88   2649.19    2.31
1112   2649.19   2651.50    2.31
1113   2651.50   2653.81    2.31
1114   2653.81   2656.12    2.31
1115   2656.12   2658.44    2.31
1116   2658.44   2660.75    2.31
1117   2660.75   2663.06    2.31
1118   2663.06   2665.38    2.31
1119   2665.38   2667.69    2.31
1120   2667.69   2670.00    2.31
1121   2670.00   2672.31    2.31
1122   2672.31   2674.62    2.31
1123   2674.62   2676.94    2.31
1124   2676.94   2679.25    2.31
1125   2679.25   2681.56    2.31
1126   2681.56   2683.88    2.31
1127   2683.88   2686.19    2.31
1128   2686.19   2688.50    2.31
1129   2688.50   2690.81    2.31
1130   2690.81   2693.12    2.31
1131   2693.12   2695.44    2.31
1132   2695.44   2697.75    2.31
1133   2697.75   2700.06    2.31
1134   2700.06   2702.38    2.31
1135   2702.38   2704.69    2.31
1136   2704.69   2707.00    2.31
1137   2707.00   2709.31    2.31
1138   2709.31   2711.62    2.31
1139   2711.62   2713.94    2.31
1140   2713.94   2716.25    2.31
1141   2716.25   2718.56    2.31
1142   2718.56   2720.88    2.31
1143   2720.88   2723.19    2.31
1144   2723.19   2725.50    2.31
1145   2725.50   2727.81    2.31
1146   2727.81   2730.12    2.31
1147   2730.12   2732.44    2.31
1148   2732.44   2734.75    2.31
1149   2734.75   2737.06    2.31
1150   2737.06   2739.38    2.31
1151   2739.38   2741.69    2.31
1152   2741.69   2744.00    2.31
1153   2744.00   2746.31    2.31
1154   2746.31   2748.62    2.31
1155   2748.62   2750.94    2.31
1156   2750.94   2753.25    2.31
1157   2753.25   2755.56    2.31
1158   2755.56   2757.88    2.31
1159   2757.88   2760.19    2.31
1160   2760.19   2762.50    2.31
1161   2762.50   2764.81    2.31
1162   2764.81   2767.12    2.31
1163   2767.12   2769.44    2.31
1164   2769.44   2771.75    2.31
1165   2771.75   2774.06    2.31
1166   2774.06   2776.38    2.31
1167   2776.38   2778.69    2.31
1168   2778.69   2781.00    2.31
1169   2781.00   2783.31    2.31
1170   2783.31   2785.62    2.31
1171   2785.62   2787.94    2.31
1172   2787.94   2790.25    2.31
1173   2790.25   2792.56    2.31
1174   2792.56   2794.88    2.31
1175   2794.88   2797.19    2.31
1176   2797.19   2799.50    2.31
1177   2799.50   2801.81    2.31
1178   2801.81   2804.12    2.31
1179   2804.12   2806.44    2.31
1180   2806.44   2808.75    2.31
1181   2808.75   2811.06    2.31
1182   2811.06   2813.38    2.31
1183   2813.38   2815.69    2.31
1184   2815.69   2818.00    2.31
1185   2818.00   2820.31    2.31
1186   2820.31   2822.62    2.31
1187   2822.62   2824.94    2.31
1188   2824.94   2827.25    2.31
1189   2827.25   2829.56    2.31
1190   2829.56   2831.88    2.31
1191   2831.88   2834.19    2.31
1192   2834.19   2836.50    2.31
1193   2836.50   2838.81    2.31
1194   2838.81   2841.12    2.31
1195   2841.12   2843.44    2.31
1196   2843.44   2845.75    2.31
1197   2845.75   2848.06    2.31
1198   2848.06   2850.38    2.31
1199   2850.38   2852.69    2.31
1200   2852.69   2855.00    2.31
1201   2855.00   2857.31    2.31
1202   2857.31   2859.62    2.31
1203   2859.62   2861.94    2.31
1204   2861.94   2864.25    2.31
1205   2864.25   2866.56    2.31
1206   2866.56   2868.88    2.31
1207   2868.88   2871.19    2.31
1208   2871.19   2873.50    2.31
1209   2873.50   2875.81    2.31
1210   2875.81   2878.12    2.31
1211   2878.12   2880.44    2.31
1212   2880.44   2882.75    2.31
1213   2882.75   2885.06    2.31
1214   2885.06   2887.38    2.31
1215   2887.38   2889.69    2.31
1216   2889.69   2892.00    2.31
1217   2892.00   2894.31    2.31
1218   2894.31   2896.62    2.31
1219   2896.62   2898.94    2.31
1220   2898.94   2901.25    2.31
1221   2901.25   2903.56    2.31
1222   2903.56   2905.88    2.31
1223   2905.88   2908.19    2.31
1224   2908.19   2910.50    2.31
1225   2910.50   2912.81    2.31
1226   2912.81   2915.12    2.31
1227   2915.12   2917.44    2.31
1228   2917.44   2919.75    2.31
1229   2919.75   2922.06    2.31
1230   2922.06   2924.38    2.31
1231   2924.38   2926.69    2.31
1232   2926.69   2929.00    2.31
1233   2929.00   2931.31    2.31
1234   2931.31   2933.62    2.31
1235   2933.62   2935.94    2.31
1236   2935.94   2938.25    2.31
1237   2938.25   2940.56    2.31
1238   2940.56   2942.88    2.31
1239   2942.88   2945.19    2.31
1240   2945.19   2947.50    2.31
1241   2947.50   2949.81    2.31
1242   2949.81   2952.12    2.31
1243   2952.12   2954.44    2.31
1244   2954.44   2956.75    2.31
1245   2956.75   2959.06    2.31
1246   2959.06   2961.38    2.31
1247   2961.38   2963.69    2.31
1248   2963.69   2966.00    2.31
1249   2966.00   2968.31    2.31
1250   2968.31   2970.62    2.31
1251   2970.62   2972.94    2.31
1252   2972.94   2975.25    2.31
1253   2975.25   2977.56    2.31
1254   2977.56   2979.88    2.31
1255   2979.88   2982.19    2.31
1256   2982.19   2984.50    2.31
1257   2984.50   2986.81    2.31
1258   2986.81   2989.12    2.31
1259   2989.12   2991.44    2.31
1260   2991.44   2993.75    2.31
1261   2993.75   2996.06    2.31
1262   2996.06   2998.38    2.31
1263   2998.38   3000.69    2.31
1264   3000.69   3003.00    2.31
1265   3003.00   3005.31    2.31
1266   3005.31   3007.62    2.31
1267   3007.62   3009.94    2.31
1268   3009.94   3012.25    2.31
1269   3012.25   3014.56    2.31
1270   3014.56   3016.88    2.31
1271   3016.88   3019.19    2.31
1272   3019.19   3021.50    2.31
1273   3021.50   3023.81    2.31
1274   3023.81   3026.12    2.31
1275   3026.12   3028.44    2.31
1276   3028.44   3030.75    2.31
1277   3030.75   3033.06    2.31
1278   3033.06   3035.38    2.31
1279   3035.38   3037.69    2.31
1280   3037.69   3040.00    2.31
1281   3040.00   3042.31    2.31
1282   3042.31   3044.62    2.31
1283   3044.62   3046.94    2.31
1284   3046.94   3049.25    2.31
1285   3049.25   3051.56    2.31
1286   3051.56   3053.88    2.31
1287   3053.88   3056.19    2.31
1288   3056.19   3058.50    2.31
1289   3058.50   3060.81    2.31
1290   3060.81   3063.12    2.31
1291   3063.12   3065.44    2.31
1292   3065.44   3067.75    2.31
1293   3067.75   3070.06    2.31
1294   3070.06   3072.38    2.31
1295   3072.38   3074.69    2.31
1296   3074.69   3077.00    2.31
1297   3077.00   3079.31    2.31
1298   3079.31   3081.62    2.31
1299   3081.62   3083.94    2.31
1300   3083.94   3086.25    2.31
1301   3086.25   3088.56    2.31
1302   3088.56   3090.88    2.31
1303   3090.88   3093.19    2.31
1304   3093.19   3095.50    2.31
1305   3095.50   3097.81    2.31
1306   3097.81   3100.12    2.31
1307   3100.12   3102.44    2.31
1308   3102.44   3104.75    2.31
1309   3104.75   3107.06    2.31
1310   3107.06   3109.38    2.31
1311   3109.38   3111.69    2.31
1312   3111.69   3114.00    2.31
1313   3114.00   3116.31    2.31
1314   3116.31   3118.62    2.31
1315   3118.62   3120.94    2.31
1316   3120.94   3123.25    2.31
1317   3123.25   3125.56    2.31
1318   3125.56   3127.88    2.31
1319   3127.88   3130.19    2.31
1320   3130.19   3132.50    2.31
1321   3132.50   3134.81    2.31
1322   3134.81   3137.12    2.31
1323   3137.12   3139.44    2.31
1324   3139.44   3141.75    2.31
1325   3141.75   3144.06    2.31
1326   3144.06   3146.38    2.31
1327   3146.38   3148.69    2.31
1328   3148.69   3151.00    2.31
1329   3151.00   3153.31    2.31
1330   3153.31   3155.62    2.31
1331   3155.62   3157.94    2.31
1332   3157.94   3160.25    2.31
1333   3160.25   3162.56    2.31
1334   3162.56   3164.88    2.31
1335   3164.88   3167.19    2.31
1336   3167.19   3169.50    2.31
1337   3169.50   3171.81    2.31
1338   3171.81   3174.12    2.31
1339   3174.12   3176.44    2.31
1340   3176.44   3178.75    2.31
1341   3178.75   3181.06    2.31
1342   3181.06   3183.38    2.31
1343   3183.38   3185.69    2.31
1344   3185.69   3188.00    2.31
1345   3188.00   3190.31    2.31
1346   3190.31   3192.62    2.31
1347   3192.62   3194.94    2.31
1348   3194.94   3197.25    2.31
1349   3197.25   3199.56    2.31
1350   3199.56   3201.88    2.31
1351   3201.88   3204.19    2.31
1352   3204.19   3206.50    2.31
1353   3206.50   3208.81    2.31
1354   3208.81   3211.12    2.31
1355   3211.12   3213.44    2.31
1356   3213.44   3215.75    2.31
1357   3215.75   3218.06    2.31
1358   3218.06   3220.38    2.31
1359   3220.38   3222.69    2.31
1360   3222.69   3225.00    2.31
1361   3225.00   3227.31    2.31
1362   3227.31   3229.62    2.31
1363   3229.62   3231.94    2.31
1364   3231.94   3234.25    2.31
1365   3234.25   3236.56    2.31
1366   3236.56   3238.88    2.31
1367   3238.88   3241.19    2.31
1368   3241.19   3243.50    2.31
1369   3243.50   3245.81    2.31
1370   3245.81   3248.12    2.31
1371   3248.12   3250.44    2.31
1372   3250.44   3252.75    2.31
1373   3252.75   3255.06    2.31
1374   3255.06   3257.38    2.31
1375   3257.38   3259.69    2.31
1376   3259.69   3262.00    2.31
1377   3262.00   3264.31    2.31
1378   3264.31   3266.62    2.31
1379   3266.62   3268.94    2.31
1380   3268.94   3271.25    2.31
1381   3271.25   3273.56    2.31
1382   3273.56   3275.88    2.31
1383   3275.88   3278.19    2.31
1384   3278.19   3280.50    2.31
1385   3280.50   3282.81    2.31
1386   3282.81   3285.12    2.31
1387   3285.12   3287.44    2.31
1388   3287.44   3289.75    2.31
1389   3289.75   3292.06    2.31
1390   3292.06   3294.38    2.31
1391   3294.38   3296.69    2.31
1392   3296.69   3299.00    2.31
1393   3299.00   3301.31    2.31
1394   3301.31   3303.62    2.31
1395   3303.62   3305.94    2.31
1396   3305.94   3308.25    2.31
1397   3308.25   3310.56    2.31
1398   3310.56   3312.88    2.31
1399   3312.88   3315.19    2.31
1400   3315.19   3317.50    2.31
1401   3317.50   3319.81    2.31
1402   3319.81   3322.12    2.31
1403   3322.12   3324.44    2.31
1404   3324.44   3326.75    2.31
1405   3326.75   3329.06    2.31
1406   3329.06   3331.38    2.31
1407   3331.38   3333.69    2.31
1408   3333.69   3336.00    2.31
1409   3336.00   3338.31    2.31
1410   3338.31   3340.62    2.31
1411   3340.62   3342.94    2.31
1412   3342.94   3345.25    2.31
1413   3345.25   3347.56    2.31
1414   3347.56   3349.88    2.31
1415   3349.88   3352.19    2.31
1416   3352.19   3354.50    2.31
1417   3354.50   3356.81    2.31
1418   3356.81   3359.12    2.31
1419   3359.12   3361.44    2.31
1420   3361.44   3363.75    2.31
1421   3363.75   3366.06    2.31
1422   3366.06   3368.38    2.31
1423   3368.38   3370.69    2.31
1424   3370.69   3373.00    2.31
1425   3373.00   3375.31    2.31
1426   3375.31   3377.62    2.31
1427   3377.62   3379.94    2.31
1428   3379.94   3382.25    2.31
1429   3382.25   3384.56    2.31
1430   3384.56   3386.88    2.31
1431   3386.88   3389.19    2.31
1432   3389.19   3391.50    2.31
1433   3391.50   3393.81    2.31
1434   3393.81   3396.12    2.31
1435   3396.12   3398.44    2.31
1436   3398.44   3400.75    2.31
1437   3400.75   3403.06    2.31
1438   3403.06   3405.38    2.31
1439   3405.38   3407.69    2.31
1440   3407.69   3410.00    2.31
1441   3410.00   3412.31    2.31
1442   3412.31   3414.62    2.31
1443   3414.62   3416.94    2.31
1444   3416.94   3419.25    2.31
1445   3419.25   3421.56    2.31
1446   3421.56   3423.88    2.31
1447   3423.88   3426.19    2.31
1448   3426.19   3428.50    2.31
1449   3428.50   3430.81    2.31
1450   3430.81   3433.12    2.31
1451   3433.12   3435.44    2.31
1452   3435.44   3437.75    2.31
1453   3437.75   3440.06    2.31
1454   3440.06   3442.38    2.31
1455   3442.38   3444.69    2.31
1456   3444.69   3447.00    2.31
1457   3447.00   3449.31    2.31
1458   3449.31   3451.62    2.31
1459   3451.62   3453.94    2.31
1460   3453.94   3456.25    2.31
1461   3456.25   3458.56    2.31
1462   3458.56   3460.88    2.31
1463   3460.88   3463.19    2.31
1464   3463.19   3465.50    2.31
1465   3465.50   3467.81    2.31
1466   3467.81   3470.12    2.31
1467   3470.12   3472.44    2.31
1468   3472.44   3474.75    2.31
1469   3474.75   3477.06    2.31
1470   3477.06   3479.38    2.31
1471   3479.38   3481.69    2.31
1472   3481.69   3484.00    2.31
1473   3484.00   3486.31    2.31
1474   3486.31   3488.62    2.31
1475   3488.62   3490.94    2.31
1476   3490.94   3493.25    2.31
1477   3493.25   3495.56    2.31
1478   3495.56   3497.88    2.31
1479   3497.88   3500.19    2.31
1480   3500.19   3502.50    2.31
1481   3502.50   3504.81    2.31
1482   3504.81   3507.12    2.31
1483   3507.12   3509.44    2.31
1484   3509.44   3511.75    2.31
1485   3511.75   3514.06    2.31
1486   3514.06   3516.38    2.31
1487   3516.38   3518.69    2.31
1488   3518.69   3521.00    2.31
1489   3521.00   3523.31    2.31
1490   3523.31   3525.62    2.31
1491   3525.62   3527.94    2.31
1492   3527.94   3530.25    2.31
1493   3530.25   3532.56    2.31
1494   3532.56   3534.88    2.31
1495   3534.88   3537.19    2.31
1496   3537.19   3539.50    2.31
1497   3539.50   3541.81    2.31
1498   3541.81   3544.12    2.31
1499   3544.12   3546.44    2.31
1500   3546.44   3548.75    2.31
1501   3548.75   3551.06    2.31
1502   3551.06   3553.38    2.31
1503   3553.38   3555.69    2.31
1504   3555.69   3558.00    2.31
1505   3558.00   3560.31    2.31
1506   3560.31   3562.62    2.31
1507   3562.62   3564.94    2.31
1508   3564.94   3567.25    2.31
1509   3567.25   3569.56    2.31
1510   3569.56   3571.88    2.31
1511   3571.88   3574.19    2.31
1512   3574.19   3576.50    2.31
1513   3576.50   3578.81    2.31
1514   3578.81   3581.12    2.31
1515   3581.12   3583.44    2.31
1516   3583.44   3585.75    2.31
1517   3585.75   3588.06    2.31
1518   3588.06   3590.38    2.31
1519   3590.38   3592.69    2.31
1520   3592.69   3595.00    2.31
1521   3595.00   3597.31    2.31
1522   3597.31   3599.62    2.31
1523   3599.62   3601.94    2.31
1524   3601.94   3604.25    2.31
1525   3604.25   3606.56    2.31
1526   3606.56   3608.88    2.31
1527   3608.88   3611.19    2.31
1528   3611.19   3613.50    2.31
1529   3613.50   3615.81    2.31
1530   3615.81   3618.12    2.31
1531   3618.12   3620.44    2.31
1532   3620.44   3622.75    2.31
1533   3622.75   3625.06    2.31
1534   3625.06   3627.38    2.31
1535   3627.38   3629.69    2.31
1536   3629.69   3632.00    2.31
1537   3632.00   3634.31    2.31
1538   3634.31   3636.62    2.31
1539   3636.62   3638.94    2.31
1540   3638.94   3641.25    2.31
1541   3641.25   3643.56    2.31
1542   3643.56   3645.88    2.31
1543   3645.88   3648.19    2.31
1544   3648.19   3650.50    2.31
1545   3650.50   3652.81    2.31
1546   3652.81   3655.12    2.31
1547   3655.12   3657.44    2.31
1548   3657.44   3659.75    2.31
1549   3659.75   3662.06    2.31
1550   3662.06   3664.38    2.31
1551   3664.38   3666.69    2.31
1552   3666.69   3669.00    2.31
1553   3669.00   3671.31    2.31
1554   3671.31   3673.62    2.31
1555   3673.62   3675.94    2.31
1556   3675.94   3678.25    2.31
1557   3678.25   3680.56    2.31
1558   3680.56   3682.88    2.31
1559   3682.88   3685.19    2.31
1560   3685.19   3687.50    2.31
1561   3687.50   3689.81    2.31
1562   3689.81   3692.12    2.31
1563   3692.12   3694.44    2.31
1564   3694.44   3696.75    2.31
1565   3696.75   3699.06    2.31
1566   3699.06   3701.38    2.31
1567   3701.38   3703.69    2.31
1568   3703.69   3706.00    2.31
1569   3706.00   3708.31    2.31
1570   3708.31   3710.62    2.31
1571   3710.62   3712.94    2.31
1572   3712.94   3715.25    2.31
1573   3715.25   3717.56    2.31
1574   3717.56   3719.88    2.31
1575   3719.88   3722.19    2.31
1576   3722.19   3724.50    2.31
1577   3724.50   3726.81    2.31
1578   3726.81   3729.12    2.31
1579   3729.12   3731.44    2.31
1580   3731.44   3733.75    2.31
1581   3733.75   3736.06    2.31
1582   3736.06   3738.38    2.31
1583   3738.38   3740.69    2.31
1584   3740.69   3743.00    2.31
1585   3743.00   3745.31    2.31
1586   3745.31   3747.62    2.31
1587   3747.62   3749.94    2.31
1588   3749.94   3752.25    2.31
1589   3752.25   3754.56    2.31
1590   3754.56   3756.88    2.31
1591   3756.88   3759.19    2.31
1592   3759.19   3761.50    2.31
1593   3761.50   3763.81    2.31
1594   3763.81   3766.12    2.31
1595   3766.12   3768.44    2.31
1596   3768.44   3770.75    2.31
1597   3770.75   3773.06    2.31
1598   3773.06   3775.38    2.31
1599   3775.38   3777.69    2.31
1600   3777.69   3780.00    2.31
1601   3780.00   3782.31    2.31
1602   3782.31   3784.62    2.31
1603   3784.62   3786.94    2.31
1604   3786.94   3789.25    2.31
1605   3789.25   3791.56    2.31
1606   3791.56   3793.88    2.31
1607   3793.88   3796.19    2.31
1608   3796.19   3798.50    2.31
1609   3798.50   3800.81    2.31
1610   3800.81   3803.12    2.31
1611   3803.12   3805.44    2.31
1612   3805.44   3807.75    2.31
1613   3807.75   3810.06    2.31
1614   3810.06   3812.38    2.31
1615   3812.38   3814.69    2.31
1616   3814.69   3817.00    2.31
1617   3817.00   3819.31    2.31
1618   3819.31   3821.62    2.31
1619   3821.62   3823.94    2.31
1620   3823.94   3826.25    2.31
1621   3826.25   3828.56    2.31
1622   3828.56   3830.88    2.31
1623   3830.88   3833.19    2.31
1624   3833.19   3835.50    2.31
1625   3835.50   3837.81    2.31
1626   3837.81   3840.12    2.31
1627   3840.12   3842.44    2.31
1628   3842.44   3844.75    2.31
1629   3844.75   3847.06    2.31
1630   3847.06   3849.38    2.31
1631   3849.38   3851.69    2.31
1632   3851.69   3854.00    2.31
1633   3854.00   3856.31    2.31
1634   3856.31   3858.62    2.31
1635   3858.62   3860.94    2.31
1636   3860.94   3863.25    2.31
1637   3863.25   3865.56    2.31
1638   3865.56   3867.88    2.31
1639   3867.88   3870.19    2.31
1640   3870.19   3872.50    2.31
1641   3872.50   3874.81    2.31
1642   3874.81   3877.12    2.31
1643   3877.12   3879.44    2.31
1644   3879.44   3881.75    2.31
1645   3881.75   3884.06    2.31
1646   3884.06   3886.38    2.31
1647   3886.38   3888.69    2.31
1648   3888.69   3891.00    2.31
1649   3891.00   3893.31    2.31
1650   3893.31   3895.62    2.31
1651   3895.62   3897.94    2.31
1652   3897.94   3900.25    2.31
1653   3900.25   3902.56    2.31
1654   3902.56   3904.88    2.31
1655   3904.88   3907.19    2.31
1656   3907.19   3909.50    2.31
1657   3909.50   3911.81    2.31
1658   3911.81   3914.12    2.31
1659   3914.12   3916.44    2.31
1660   3916.44   3918.75    2.31
1661   3918.75   3921.06    2.31
1662   3921.06   3923.38    2.31
1663   3923.38   3925.69    2.31
1664   3925.69   3928.00    2.31
1665   3928.00   3930.31    2.31
1666   3930.31   3932.62    2.31
1667   3932.62   3934.94    2.31
1668   3934.94   3937.25    2.31
1669   3937.25   3939.56    2.31
1670   3939.56   3941.88    2.31
1671   3941.88   3944.19    2.31
1672   3944.19   3946.50    2.31
1673   3946.50   3948.81    2.31
1674   3948.81   3951.12    2.31
1675   3951.12   3953.44    2.31
1676   3953.44   3955.75    2.31
1677   3955.75   3958.06    2.31
1678   3958.06   3960.38    2.31
1679   3960.38   3962.69    2.31
1680   3962.69   3965.00    2.31
1681   3965.00   3967.31    2.31
1682   3967.31   3969.62    2.31
1683   3969.62   3971.94    2.31
1684   3971.94   3974.25    2.31
1685   3974.25   3976.56    2.31
1686   3976.56   3978.88    2.31
1687   3978.88   3981.19    2.31
1688   3981.19   3983.50    2.31
1689   3983.50   3985.81    2.31
1690   3985.81   3988.12    2.31
1691   3988.12   3990.44    2.31
1692   3990.44   3992.75    2.31
1693   3992.75   3995.06    2.31
1694   3995.06   3997.38    2.31
1695   3997.38   3999.69    2.31
1696   3999.69   4002.00    2.31
1697   4002.00   4004.31    2.31
1698   4004.31   4006.62    2.31
1699   4006.62   4008.94    2.31
1700   4008.94   4011.25    2.31
1701   4011.25   4013.56    2.31
1702   4013.56   4015.88    2.31
1703   4015.88   4018.19    2.31
1704   4018.19   4020.50    2.31
1705   4020.50   4022.81    2.31
1706   4022.81   4025.12    2.31
1707   4025.12   4027.44    2.31
1708   4027.44   4029.75    2.31
1709   4029.75   4032.06    2.31
1710   4032.06   4034.38    2.31
1711   4034.38   4036.69    2.31
1712   4036.69   4039.00    2.31
1713   4039.00   4041.31    2.31
1714   4041.31   4043.62    2.31
1715   4043.62   4045.94    2.31
1716   4045.94   4048.25    2.31
1717   4048.25   4050.56    2.31
1718   4050.56   4052.88    2.31
1719   4052.88   4055.19    2.31
1720   4055.19   4057.50    2.31
1721   4057.50   4059.81    2.31
1722   4059.81   4062.12    2.31
1723   4062.12   4064.44    2.31
1724   4064.44   4066.75    2.31
1725   4066.75   4069.06    2.31
1726   4069.06   4071.38    2.31
1727   4071.38   4073.69    2.31
1728   4073.69   4076.00    2.31
1729   4076.00   4078.31    2.31
1730   4078.31   4080.62    2.31
1731   4080.62   4082.94    2.31
1732   4082.94   4085.25    2.31
1733   4085.25   4087.56    2.31
1734   4087.56   4089.88    2.31
1735   4089.88   4092.19    2.31
1736   4092.19   4094.50    2.31
1737   4094.50   4096.81    2.31
1738   4096.81   4099.12    2.31
1739   4099.12   4101.44    2.31
1740   4101.44   4103.75    2.31
1741   4103.75   4106.06    2.31
1742   4106.06   4108.38    2.31
1743   4108.38   4110.69    2.31
1744   4110.69   4113.00    2.31
1745   4113.00   4115.31    2.31
1746   4115.31   4117.62    2.31
1747   4117.62   4119.94    2.31
1748   4119.94   4122.25    2.31
1749   4122.25   4124.56    2.31
1750   4124.56   4126.88    2.31
1751   4126.88   4129.19    2.31
1752   4129.19   4131.50    2.31
1753   4131.50   4133.81    2.31
1754   4133.81   4136.12    2.31
1755   4136.12   4138.44    2.31
1756   4138.44   4140.75    2.31
1757   4140.75   4143.06    2.31
1758   4143.06   4145.38    2.31
1759   4145.38   4147.69    2.31
1760   4147.69   4150.00    2.31
1761   4150.00   4152.31    2.31
1762   4152.31   4154.62    2.31
1763   4154.62   4156.94    2.31
1764   4156.94   4159.25    2.31
1765   4159.25   4161.56    2.31
1766   4161.56   4163.88    2.31
1767   4163.88   4166.19    2.31
1768   4166.19   4168.50    2.31
1769   4168.50   4170.81    2.31
1770   4170.81   4173.12    2.31
1771   4173.12   4175.44    2.31
1772   4175.44   4177.75    2.31
1773   4177.75   4180.06    2.31
1774   4180.06   4182.38    2.31
1775   4182.38   4184.69    2.31
1776   4184.69   4187.00    2.31
1777   4187.00   4189.31    2.31
1778   4189.31   4191.62    2.31
1779   4191.62   4193.94    2.31
1780   4193.94   4196.25    2.31
1781   4196.25   4198.56    2.31
1782   4198.56   4200.88    2.31
1783   4200.88   4203.19    2.31
1784   4203.19   4205.50    2.31
1785   4205.50   4207.81    2.31
1786   4207.81   4210.12    2.31
1787   4210.12   4212.44    2.31
1788   4212.44   4214.75    2.31
1789   4214.75   4217.06    2.31
1790   4217.06   4219.38    2.31
1791   4219.38   4221.69    2.31
1792   4221.69   4224.00    2.31
1793   4224.00   4226.31    2.31
1794   4226.31   4228.62    2.31
1795   4228.62   4230.94    2.31
1796   4230.94   4233.25    2.31
1797   4233.25   4235.56    2.31
1798   4235.56   4237.88    2.31
1799   4237.88   4240.19    2.31
1800   4240.19   4242.50    2.31
1801   4242.50   4244.81    2.31
1802   4244.81   4247.12    2.31
1803   4247.12   4249.44    2.31
1804   4249.44   4251.75    2.31
1805   4251.75   4254.06    2.31
1806   4254.06   4256.38    2.31
1807   4256.38   4258.69    2.31
1808   4258.69   4261.00    2.31
1809   4261.00   4263.31    2.31
1810   4263.31   4265.62    2.31
1811   4265.62   4267.94    2.31
1812   4267.94   4270.25    2.31
1813   4270.25   4272.56    2.31
1814   4272.56   4274.88    2.31
1815   4274.88   4277.19    2.31
1816   4277.19   4279.50    2.31
1817   4279.50   4281.81    2.31
1818   4281.81   4284.12    2.31
1819   4284.12   4286.44    2.31
1820   4286.44   4288.75    2.31
1821   4288.75   4291.06    2.31
1822   4291.06   4293.38    2.31
1823   4293.38   4295.69    2.31
1824   4295.69   4298.00    2.31
1825   4298.00   4300.31    2.31
1826   4300.31   4302.62    2.31
1827   4302.62   4304.94    2.31
1828   4304.94   4307.25    2.31
1829   4307.25   4309.56    2.31
1830   4309.56   4311.88    2.31
1831   4311.88   4314.19    2.31
1832   4314.19   4316.50    2.31
1833   4316.50   4318.81    2.31
1834   4318.81   4321.12    2.31
1835   4321.12   4323.44    2.31
1836   4323.44   4325.75    2.31
1837   4325.75   4328.06    2.31
1838   4328.06   4330.38    2.31
1839   4330.38   4332.69    2.31
1840   4332.69   4335.00    2.31
1841   4335.00   4337.31    2.31
1842   4337.31   4339.62    2.31
1843   4339.62   4341.94    2.31
1844   4341.94   4344.25    2.31
1845   4344.25   4346.56    2.31
1846   4346.56   4348.88    2.31
1847   4348.88   4351.19    2.31
1848   4351.19   4353.50    2.31
1849   4353.50   4355.81    2.31
1850   4355.81   4358.12    2.31
1851   4358.12   4360.44    2.31
1852   4360.44   4362.75    2.31
1853   4362.75   4365.06    2.31
1854   4365.06   4367.38    2.31
1855   4367.38   4369.69    2.31
1856   4369.69   4372.00    2.31
1857   4372.00   4374.31    2.31
1858   4374.31   4376.62    2.31
1859   4376.62   4378.94    2.31
1860   4378.94   4381.25    2.31
1861   4381.25   4383.56    2.31
1862   4383.56   4385.88    2.31
1863   4385.88   4388.19    2.31
1864   4388.19   4390.50    2.31
1865   4390.50   4392.81    2.31
1866   4392.81   4395.12    2.31
1867   4395.12   4397.44    2.31
1868   4397.44   4399.75    2.31
1869   4399.75   4402.06    2.31
1870   4402.06   4404.38    2.31
1871   4404.38   4406.69    2.31
1872   4406.69   4409.00    2.31
1873   4409.00   4411.31    2.31
1874   4411.31   4413.62    2.31
1875   4413.62   4415.94    2.31
1876   4415.94   4418.25    2.31
1877   4418.25   4420.56    2.31
1878   4420.56   4422.88    2.31
1879   4422.88   4425.19    2.31
1880   4425.19   4427.50    2.31
1881   4427.50   4429.81    2.31
1882   4429.81   4432.12    2.31
1883   4432.12   4434.44    2.31
1884   4434.44   4436.75    2.31
1885   4436.75   4439.06    2.31
1886   4439.06   4441.38    2.31
1887   4441.38   4443.69    2.31
1888   4443.69   4446.00    2.31
1889   4446.00   4448.31    2.31
1890   4448.31   4450.62    2.31
1891   4450.62   4452.94    2.31
1892   4452.94   4455.25    2.31
1893   4455.25   4457.56    2.31
1894   4457.56   4459.88    2.31
1895   4459.88   4462.19    2.31
1896   4462.19   4464.50    2.31
1897   4464.50   4466.81    2.31
1898   4466.81   4469.12    2.31
1899   4469.12   4471.44    2.31
1900   4471.44   4473.75    2.31
1901   4473.75   4476.06    2.31
1902   4476.06   4478.38    2.31
1903   4478.38   4480.69    2.31
1904   4480.69   4483.00    2.31
1905   4483.00   4485.31    2.31
1906   4485.31   4487.62    2.31
1907   4487.62   4489.94    2.31
1908   4489.94   4492.25    2.31
1909   4492.25   4494.56    2.31
1910   4494.56   4496.88    2.31
1911   4496.88   4499.19    2.31
1912   4499.19   4501.50    2.31
1913   4501.50   4503.81    2.31
1914   4503.81   4506.12    2.31
1915   4506.12   4508.44    2.31
1916   4508.44   4510.75    2.31
1917   4510.75   4513.06    2.31
1918   4513.06   4515.38    2.31
1919   4515.38   4517.69    2.31
1920   4517.69   4520.00    2.31
1921   4520.00   4522.31    2.31
1922   4522.31   4524.62    2.31
1923   4524.62   4526.94    2.31
1924   4526.94   4529.25    2.31
1925   4529.25   4531.56    2.31
1926   4531.56   4533.88    2.31
1927   4533.88   4536.19    2.31
1928   4536.19   4538.50    2.31
1929   4538.50   4540.81    2.31
1930   4540.81   4543.12    2.31
1931   4543.12   4545.44    2.31
1932   4545.44   4547.75    2.31
1933   4547.75   4550.06    2.31
1934   4550.06   4552.38    2.31
1935   4552.38   4554.69    2.31
1936   4554.69   4557.00    2.31
1937   4557.00   4559.31    2.31
1938   4559.31   4561.62    2.31
1939   4561.62   4563.94    2.31
1940   4563.94   4566.25    2.31
1941   4566.25   4568.56    2.31
1942   4568.56   4570.88    2.31
1943   4570.88   4573.19    2.31
1944   4573.19   4575.50    2.31
1945   4575.50   4577.81    2.31
1946   4577.81   4580.12    2.31
1947   4580.12   4582.44    2.31
1948   4582.44   4584.75    2.31
1949   4584.75   4587.06    2.31
1950   4587.06   4589.38    2.31
1951   4589.38   4591.69    2.31
1952   4591.69   4594.00    2.31
1953   4594.00   4596.31    2.31
1954   4596.31   4598.62    2.31
1955   4598.62   4600.94    2.31
1956   4600.94   4603.25    2.31
1957   4603.25   4605.56    2.31
1958   4605.56   4607.88    2.31
1959   4607.88   4610.19    2.31
1960   4610.19   4612.50    2.31
1961   4612.50   4614.81    2.31
1962   4614.81   4617.12    2.31
1963   4617.12   4619.44    2.31
1964   4619.44   4621.75    2.31
1965   4621.75   4624.06    2.31
1966   4624.06   4626.38    2.31
1967   4626.38   4628.69    2.31
1968   4628.69   4631.00    2.31
1969   4631.00   4633.31    2.31
1970   4633.31   4635.62    2.31
1971   4635.62   4637.94    2.31
1972   4637.94   4640.25    2.31
1973   4640.25   4642.56    2.31
1974   4642.56   4644.88    2.31
1975   4644.88   4647.19    2.31
1976   4647.19   4649.50    2.31
1977   4649.50   4651.81    2.31
1978   4651.81   4654.12    2.31
1979   4654.12   4656.44    2.31
1980   4656.44   4658.75    2.31
1981   4658.75   4661.06    2.31
1982   4661.06   4663.38    2.31
1983   4663.38   4665.69    2.31
1984   4665.69   4668.00    2.31
1985   4668.00   4670.31    2.31
1986   4670.31   4672.62    2.31
1987   4672.62   4674.94    2.31
1988   4674.94   4677.25    2.31
1989   4677.25   4679.56    2.31
1990   4679.56   4681.88    2.31
1991   4681.88   4684.19    2.31
1992   4684.19   4686.50    2.31
1993   4686.50   4688.81    2.31
1994   4688.81   4691.12    2.31
1995   4691.12   4693.44    2.31
1996   4693.44   4695.75    2.31
1997   4695.75   4698.06    2.31
1998   4698.06   4700.38    2.31
1999   4700.38   4702.69    2.31
2000   4702.69   4705.00    2.31
2001   4705.00   4707.31    2.31
2002   4707.31   4709.62    2.31
2003   4709.62   4711.94    2.31
2004   4711.94   4714.25    2.31
2005   4714.25   4716.56    2.31
2006   4716.56   4718.88    2.31
2007   4718.88   4721.19    2.31
2008   4721.19   4723.50    2.31
2009   4723.50   4725.81    2.31
2010   4725.81   4728.12    2.31
2011   4728.12   4730.44    2.31
2012   4730.44   4732.75    2.31
2013   4732.75   4735.06    2.31
2014   4735.06   4737.38    2.31
2015   4737.38   4739.69    2.31
2016   4739.69   4742.00    2.31
2017   4742.00   4744.31    2.31
2018   4744.31   4746.62    2.31
2019   4746.62   4748.94    2.31
2020   4748.94   4751.25    2.31
2021   4751.25   4753.56    2.31
2022   4753.56   4755.88    2.31
2023   4755.88   4758.19    2.31
2024   4758.19   4760.50    2.31
2025   4760.50   4762.81    2.31
2026   4762.81   4765.12    2.31
2027   4765.12   4767.44    2.31
2028   4767.44   4769.75    2.31
2029   4769.75   4772.06    2.31
2030   4772.06   4774.38    2.31
2031   4774.38   4776.69    2.31
2032   4776.69   4779.00    2.31
2033   4779.00   4781.31    2.31
2034   4781.31   4783.62    2.31
2035   4783.62   4785.94    2.31
2036   4785.94   4788.25    2.31
2037   4788.25   4790.56    2.31
2038   4790.56   4792.88    2.31
2039   4792.88   4795.19    2.31
2040   4795.19   4797.50    2.31
2041   4797.50   4799.81    2.31
2042   4799.81   4802.12    2.31
2043   4802.12   4804.44    2.31
2044   4804.44   4806.75    2.31
2045   4806.75   4809.06    2.31
2046   4809.06   4811.38    2.31
2047   4811.38   4813.69    2.31
2048   4813.69   4816.00    2.31
2049   4816.00   4818.31    2.31
2050   4818.31   4820.62    2.31
2051   4820.62   4822.94    2.31
2052   4822.94   4825.25    2.31
2053   4825.25   4827.56    2.31
2054   4827.56   4829.88    2.31
2055   4829.88   4832.19    2.31
2056   4832.19   4834.50    2.31
2057   4834.50   4836.81    2.31
2058   4836.81   4839.12    2.31
2059   4839.12   4841.44    2.31
2060   4841.44   4843.75    2.31
2061   4843.75   4846.06    2.31
2062   4846.06   4848.38    2.31
2063   4848.38   4850.69    2.31
2064   4850.69   4853.00    2.31
2065   4853.00   4855.31    2.31
2066   4855.31   4857.62    2.31
2067   4857.62   4859.94    2.31
2068   4859.94   4862.25    2.31
2069   4862.25   4864.56    2.31
2070   4864.56   4866.88    2.31
2071   4866.88   4869.19    2.31
2072   4869.19   4871.50    2.31
2073   4871.50   4873.81    2.31
2074   4873.81   4876.12    2.31
2075   4876.12   4878.44    2.31
2076   4878.44   4880.75    2.31
2077   4880.75   4883.06    2.31
2078   4883.06   4885.38    2.31
2079   4885.38   4887.69    2.31
2080   4887.69   4890.00    2.31
2081   4890.00   4892.31    2.31
2082   4892.31   4894.62    2.31
2083   4894.62   4896.94    2.31
2084   4896.94   4899.25    2.31
2085   4899.25   4901.56    2.31
2086   4901.56   4903.88    2.31
2087   4903.88   4906.19    2.31
2088   4906.19   4908.50    2.31
2089   4908.50   4910.81    2.31
2090   4910.81   4913.12    2.31
2091   4913.12   4915.44    2.31
2092   4915.44   4917.75    2.31
2093   4917.75   4920.06    2.31
2094   4920.06   4922.38    2.31
2095   4922.38   4924.69    2.31
2096   4924.69   4927.00    2.31
2097   4927.00   4929.31    2.31
2098   4929.31   4931.62    2.31
2099   4931.62   4933.94    2.31
2100   4933.94   4936.25    2.31
2101   4936.25   4938.56    2.31
2102   4938.56   4940.88    2.31
2103   4940.88   4943.19    2.31
2104   4943.19   4945.50    2.31
2105   4945.50   4947.81    2.31
2106   4947.81   4950.12    2.31
2107   4950.12   4952.44    2.31
2108   4952.44   4954.75    2.31
2109   4954.75   4957.06    2.31
2110   4957.06   4959.38    2.31
2111   4959.38   4961.69    2.31
2112   4961.69   4964.00    2.31
2113   4964.00   4966.31    2.31
2114   4966.31   4968.62    2.31
2115   4968.62   4970.94    2.31
2116   4970.94   4973.25    2.31
2117   4973.25   4975.56    2.31
2118   4975.56   4977.88    2.31
2119   4977.88   4980.19    2.31
2120   4980.19   4982.50    2.31
2121   4982.50   4984.81    2.31
2122   4984.81   4987.12    2.31
2123   4987.12   4989.44    2.31
2124   4989.44   4991.75    2.31
2125   4991.75   4994.06    2.31
2126   4994.06   4996.38    2.31
2127   4996.38   4998.69    2.31
2128   4998.69   5001.00    2.31
2129   5001.00   5003.31    2.31
2130   5003.31   5005.62    2.31
2131   5005.62   5007.94    2.31
2132   5007.94   5010.25    2.31
2133   5010.25   5012.56    2.31
2134   5012.56   5014.88    2.31
2135   5014.88   5017.19    2.31
2136   5017.19   5019.50    2.31
2137   5019.50   5021.81    2.31
2138   5021.81   5024.12    2.31
2139   5024.12   5026.44    2.31
2140   5026.44   5028.75    2.31
2141   5028.75   5031.06    2.31
2142   5031.06   5033.38    2.31
2143   5033.38   5035.69    2.31
2144   5035.69   5038.00    2.31
2145   5038.00   5040.31    2.31
2146   5040.31   5042.62    2.31
2147   5042.62   5044.94    2.31
2148   5044.94   5047.25    2.31
2149   5047.25   5049.56    2.31
2150   5049.56   5051.88    2.31
2151   5051.88   5054.19    2.31
2152   5054.19   5056.50    2.31
2153   5056.50   5058.81    2.31
2154   5058.81   5061.12    2.31
2155   5061.12   5063.44    2.31
2156   5063.44   5065.75    2.31
2157   5065.75   5068.06    2.31
2158   5068.06   5070.38    2.31
2159   5070.38   5072.69    2.31
2160   5072.69   5075.00    2.31
2161   5075.00   5077.31    2.31
2162   5077.31   5079.62    2.31
2163   5079.62   5081.94    2.31
2164   5081.94   5084.25    2.31
2165   5084.25   5086.56    2.31
2166   5086.56   5088.88    2.31
2167   5088.88   5091.19    2.31
2168   5091.19   5093.50    2.31
2169   5093.50   5095.81    2.31
2170   5095.81   5098.12    2.31
2171   5098.12   5100.44    2.31
2172   5100.44   5102.75    2.31
2173   5102.75   5105.06    2.31
2174   5105.06   5107.38    2.31
2175   5107.38   5109.69    2.31
2176   5109.69   5112.00    2.31
2177   5112.00   5114.31    2.31
2178   5114.31   5116.62    2.31
2179   5116.62   5118.94    2.31
2180   5118.94   5121.25    2.31
2181   5121.25   5123.56    2.31
2182   5123.56   5125.88    2.31
2183   5125.88   5128.19    2.31
2184   5128.19   5130.50    2.31
2185   5130.50   5132.81    2.31
2186   5132.81   5135.12    2.31
2187   5135.12   5137.44    2.31
2188   5137.44   5139.75    2.31
2189   5139.75   5142.06    2.31
2190   5142.06   5144.38    2.31
2191   5144.38   5146.69    2.31
2192   5146.69   5149.00    2.31
2193   5149.00   5151.31    2.31
2194   5151.31   5153.62    2.31
2195   5153.62   5155.94    2.31
2196   5155.94   5158.25    2.31
2197   5158.25   5160.56    2.31
2198   5160.56   5162.88    2.31
2199   5162.88   5165.19    2.31
2200   5165.19   5167.50    2.31
2201   5167.50   5169.81    2.31
2202   5169.81   5172.12    2.31
2203   5172.12   5174.44    2.31
2204   5174.44   5176.75    2.31
2205   5176.75   5179.06    2.31
2206   5179.06   5181.38    2.31
2207   5181.38   5183.69    2.31
2208   5183.69   5186.00    2.31
2209   5186.00   5188.31    2.31
2210   5188.31   5190.62    2.31
2211   5190.62   5192.94    2.31
2212   5192.94   5195.25    2.31
2213   5195.25   5197.56    2.31
2214   5197.56   5199.88    2.31
2215   5199.88   5202.19    2.31
2216   5202.19   5204.50    2.31
2217   5204.50   5206.81    2.31
2218   5206.81   5209.12    2.31
2219   5209.12   5211.44    2.31
2220   5211.44   5213.75    2.31
2221   5213.75   5216.06    2.31
2222   5216.06   5218.38    2.31
2223   5218.38   5220.69    2.31
2224   5220.69   5223.00    2.31
2225   5223.00   5225.31    2.31
2226   5225.31   5227.62    2.31
2227   5227.62   5229.94    2.31
2228   5229.94   5232.25    2.31
2229   5232.25   5234.56    2.31
2230   5234.56   5236.88    2.31
2231   5236.88   5239.19    2.31
2232   5239.19   5241.50    2.31
2233   5241.50   5243.81    2.31
2234   5243.81   5246.12    2.31
2235   5246.12   5248.44    2.31
2236   5248.44   5250.75    2.31
2237   5250.75   5253.06    2.31
2238   5253.06   5255.38    2.31
2239   5255.38   5257.69    2.31
2240   5257.69   5260.00    2.31
2241   5260.00   5262.31    2.31
2242   5262.31   5264.62    2.31
2243   5264.62   5266.94    2.31
2244   5266.94   5269.25    2.31
2245   5269.25   5271.56    2.31
2246   5271.56   5273.88    2.31
2247   5273.88   5276.19    2.31
2248   5276.19   5278.50    2.31
2249   5278.50   5280.81    2.31
2250   5280.81   5283.12    2.31
2251   5283.12   5285.44    2.31
2252   5285.44   5287.75    2.31
2253   5287.75   5290.06    2.31
2254   5290.06   5292.38    2.31
2255   5292.38   5294.69    2.31
2256   5294.69   5297.00    2.31
2257   5297.00   5299.31    2.31
2258   5299.31   5301.62    2.31
2259   5301.62   5303.94    2.31
2260   5303.94   5306.25    2.31
2261   5306.25   5308.56    2.31
2262   5308.56   5310.88    2.31
2263   5310.88   5313.19    2.31
2264   5313.19   5315.50    2.31
2265   5315.50   5317.81    2.31
2266   5317.81   5320.12    2.31
2267   5320.12   5322.44    2.31
2268   5322.44   5324.75    2.31
2269   5324.75   5327.06    2.31
2270   5327.06   5329.38    2.31
2271   5329.38   5331.69    2.31
2272   5331.69   5334.00    2.31
2273   5334.00   5336.31    2.31
2274   5336.31   5338.62    2.31
2275   5338.62   5340.94    2.31
2276   5340.94   5343.25    2.31
2277   5343.25   5345.56    2.31
2278   5345.56   5347.88    2.31
2279   5347.88   5350.19    2.31
2280   5350.19   5352.50    2.31
2281   5352.50   5354.81    2.31
2282   5354.81   5357.12    2.31
2283   5357.12   5359.44    2.31
2284   5359.44   5361.75    2.31
2285   5361.75   5364.06    2.31
2286   5364.06   5366.38    2.31
2287   5366.38   5368.69    2.31
2288   5368.69   5371.00    2.31
2289   5371.00   5373.31    2.31
2290   5373.31   5375.62    2.31
2291   5375.62   5377.94    2.31
2292   5377.94   5380.25    2.31
2293   5380.25   5382.56    2.31
2294   5382.56   5384.88    2.31
2295   5384.88   5387.19    2.31
2296   5387.19   5389.50    2.31
2297   5389.50   5391.81    2.31
2298   5391.81   5394.12    2.31
2299   5394.12   5396.44    2.31
2300   5396.44   5398.75    2.31
2301   5398.75   5401.06    2.31
2302   5401.06   5403.38    2.31
2303   5403.38   5405.69    2.31
2304   5405.69   5408.00    2.31
2305   5408.00   5410.31    2.31
2306   5410.31   5412.62    2.31
2307   5412.62   5414.94    2.31
2308   5414.94   5417.25    2.31
2309   5417.25   5419.56    2.31
2310   5419.56   5421.88    2.31
2311   5421.88   5424.19    2.31
2312   5424.19   5426.50    2.31
2313   5426.50   5428.81    2.31
2314   5428.81   5431.12    2.31
2315   5431.12   5433.44    2.31
2316   5433.44   5435.75    2.31
2317   5435.75   5438.06    2.31
2318   5438.06   5440.38    2.31
2319   5440.38   5442.69    2.31
2320   5442.69   5445.00    2.31
2321   5445.00   5447.31    2.31
2322   5447.31   5449.62    2.31
2323   5449.62   5451.94    2.31
2324   5451.94   5454.25    2.31
2325   5454.25   5456.56    2.31
2326   5456.56   5458.88    2.31
2327   5458.88   5461.19    2.31
2328   5461.19   5463.50    2.31
2329   5463.50   5465.81    2.31
2330   5465.81   5468.12    2.31
2331   5468.12   5470.44    2.31
2332   5470.44   5472.75    2.31
2333   5472.75   5475.06    2.31
2334   5475.06   5477.38    2.31
2335   5477.38   5479.69    2.31
2336   5479.69   5482.00    2.31
2337   5482.00   5484.31    2.31
2338   5484.31   5486.62    2.31
2339   5486.62   5488.94    2.31
2340   5488.94   5491.25    2.31
2341   5491.25   5493.56    2.31
2342   5493.56   5495.88    2.31
2343   5495.88   5498.19    2.31
2344   5498.19   5500.50    2.31
2345   5500.50   5502.81    2.31
2346   5502.81   5505.12    2.31
2347   5505.12   5507.44    2.31
2348   5507.44   5509.75    2.31
2349   5509.75   5512.06    2.31
2350   5512.06   5514.38    2.31
2351   5514.38   5516.69    2.31
2352   5516.69   5519.00    2.31
2353   5519.00   5521.31    2.31
2354   5521.31   5523.62    2.31
2355   5523.62   5525.94    2.31
2356   5525.94   5528.25    2.31
2357   5528.25   5530.56    2.31
2358   5530.56   5532.88    2.31
2359   5532.88   5535.19    2.31
2360   5535.19   5537.50    2.31
2361   5537.50   5539.81    2.31
2362   5539.81   5542.12    2.31
2363   5542.12   5544.44    2.31
2364   5544.44   5546.75    2.31
2365   5546.75   5549.06    2.31
2366   5549.06   5551.38    2.31
2367   5551.38   5553.69    2.31
2368   5553.69   5556.00    2.31
2369   5556.00   5558.31    2.31
2370   5558.31   5560.62    2.31
2371   5560.62   5562.94    2.31
2372   5562.94   5565.25    2.31
2373   5565.25   5567.56    2.31
2374   5567.56   5569.88    2.31
2375   5569.88   5572.19    2.31
2376   5572.19   5574.50    2.31
2377   5574.50   5576.81    2.31
2378   5576.81   5579.12    2.31
2379   5579.12   5581.44    2.31
2380   5581.44   5583.75    2.31
2381   5583.75   5586.06    2.31
2382   5586.06   5588.38    2.31
2383   5588.38   5590.69    2.31
2384   5590.69   5593.00    2.31
2385   5593.00   5595.31    2.31
2386   5595.31   5597.62    2.31
2387   5597.62   5599.94    2.31
2388   5599.94   5602.25    2.31
2389   5602.25   5604.56    2.31
2390   5604.56   5606.88    2.31
2391   5606.88   5609.19    2.31
2392   5609.19   5611.50    2.31
2393   5611.50   5613.81    2.31
2394   5613.81   5616.12    2.31
2395   5616.12   5618.44    2.31
2396   5618.44   5620.75    2.31
2397   5620.75   5623.06    2.31
2398   5623.06   5625.38    2.31
2399   5625.38   5627.69    2.31
2400   5627.69   5630.00    2.31
2401   5630.00   5632.31    2.31
2402   5632.31   5634.62    2.31
2403   5634.62   5636.94    2.31
2404   5636.94   5639.25    2.31
2405   5639.25   5641.56    2.31
2406   5641.56   5643.88    2.31
2407   5643.88   5646.19    2.31
2408   5646.19   5648.50    2.31
2409   5648.50   5650.81    2.31
2410   5650.81   5653.12    2.31
2411   5653.12   5655.44    2.31
2412   5655.44   5657.75    2.31
2413   5657.75   5660.06    2.31
2414   5660.06   5662.38    2.31
2415   5662.38   5664.69    2.31
2416   5664.69   5667.00    2.31
2417   5667.00   5669.31    2.31
2418   5669.31   5671.62    2.31
2419   5671.62   5673.94    2.31
2420   5673.94   5676.25    2.31
2421   5676.25   5678.56    2.31
2422   5678.56   5680.88    2.31
2423   5680.88   5683.19    2.31
2424   5683.19   5685.50    2.31
2425   5685.50   5687.81    2.31
2426   5687.81   5690.12    2.31
2427   5690.12   5692.44    2.31
2428   5692.44   5694.75    2.31
2429   5694.75   5697.06    2.31
2430   5697.06   5699.38    2.31
2431   5699.38   5701.69    2.31
2432   5701.69   5704.00    2.31
2433   5704.00   5706.31    2.31
2434   5706.31   5708.62    2.31
2435   5708.62   5710.94    2.31
2436   5710.94   5713.25    2.31
2437   5713.25   5715.56    2.31
2438   5715.56   5717.88    2.31
2439   5717.88   5720.19    2.31
2440   5720.19   5722.50    2.31
2441   5722.50   5724.81    2.31
2442   5724.81   5727.12    2.31
2443   5727.12   5729.44    2.31
2444   5729.44   5731.75    2.31
2445   5731.75   5734.06    2.31
2446   5734.06   5736.38    2.31
2447   5736.38   5738.69    2.31
2448   5738.69   5741.00    2.31
2449   5741.00   5743.31    2.31
2450   5743.31   5745.62    2.31
2451   5745.62   5747.94    2.31
2452   5747.94   5750.25    2.31
2453   5750.25   5752.56    2.31
2454   5752.56   5754.88    2.31
2455   5754.88   5757.19    2.31
2456   5757.19   5759.50    2.31
2457   5759.50   5761.81    2.31
2458   5761.81   5764.12    2.31
2459   5764.12   5766.44    2.31
2460   5766.44   5768.75    2.31
2461   5768.75   5771.06    2.31
2462   5771.06   5773.38    2.31
2463   5773.38   5775.69    2.31
2464   5775.69   5778.00    2.31
2465   5778.00   5780.31    2.31
2466   5780.31   5782.62    2.31
2467   5782.62   5784.94    2.31
2468   5784.94   5787.25    2.31
2469   5787.25   5789.56    2.31
2470   5789.56   5791.88    2.31
2471   5791.88   5794.19    2.31
2472   5794.19   5796.50    2.31
2473   5796.50   5798.81    2.31
2474   5798.81   5801.12    2.31
2475   5801.12   5803.44    2.31
2476   5803.44   5805.75    2.31
2477   5805.75   5808.06    2.31
2478   5808.06   5810.38    2.31
2479   5810.38   5812.69    2.31
2480   5812.69   5815.00    2.31
2481   5815.00   5817.31    2.31
2482   5817.31   5819.62    2.31
2483   5819.62   5821.94    2.31
2484   5821.94   5824.25    2.31
2485   5824.25   5826.56    2.31
2486   5826.56   5828.88    2.31
2487   5828.88   5831.19    2.31
2488   5831.19   5833.50    2.31
2489   5833.50   5835.81    2.31
2490   5835.81   5838.12    2.31
2491   5838.12   5840.44    2.31
2492   5840.44   5842.75    2.31
2493   5842.75   5845.06    2.31
2494   5845.06   5847.38    2.31
2495   5847.38   5849.69    2.31
2496   5849.69   5852.00    2.31
2497   5852.00   5854.31    2.31
2498   5854.31   5856.62    2.31
2499   5856.62   5858.94    2.31
2500   5858.94   5861.25    2.31
2501   5861.25   5863.56    2.31
2502   5863.56   5865.88    2.31
2503   5865.88   5868.19    2.31
2504   5868.19   5870.50    2.31
2505   5870.50   5872.81    2.31
2506   5872.81   5875.12    2.31
2507   5875.12   5877.44    2.31
2508   5877.44   5879.75    2.31
2509   5879.75   5882.06    2.31
2510   5882.06   5884.38    2.31
2511   5884.38   5886.69    2.31
2512   5886.69   5889.00    2.31
2513   5889.00   5891.31    2.31
2514   5891.31   5893.62    2.31
2515   5893.62   5895.94    2.31
2516   5895.94   5898.25    2.31
2517   5898.25   5900.56    2.31
2518   5900.56   5902.88    2.31
2519   5902.88   5905.19    2.31
2520   5905.19   5907.50    2.31
2521   5907.50   5909.81    2.31
2522   5909.81   5912.12    2.31
2523   5912.12   5914.44    2.31
2524   5914.44   5916.75    2.31
2525   5916.75   5919.06    2.31
2526   5919.06   5921.38    2.31
2527   5921.38   5923.69    2.31
2528   5923.69   5926.00    2.31
2529   5926.00   5928.31    2.31
2530   5928.31   5930.62    2.31
2531   5930.62   5932.94    2.31
2532   5932.94   5935.25    2.31
2533   5935.25   5937.56    2.31
2534   5937.56   5939.88    2.31
2535   5939.88   5942.19    2.31
2536   5942.19   5944.50    2.31
2537   5944.50   5946.81    2.31
2538   5946.81   5949.12    2.31
2539   5949.12   5951.44    2.31
2540   5951.44   5953.75    2.31
2541   5953.75   5956.06    2.31
2542   5956.06   5958.38    2.31
2543   5958.38   5960.69    2.31
2544   5960.69   5963.00    2.31
2545   5963.00   5965.31    2.31
2546   5965.31   5967.62    2.31
2547   5967.62   5969.94    2.31
2548   5969.94   5972.25    2.31
2549   5972.25   5974.56    2.31
2550   5974.56   5976.88    2.31
2551   5976.88   5979.19    2.31
2552   5979.19   5981.50    2.31
2553   5981.50   5983.81    2.31
2554   5983.81   5986.12    2.31
2555   5986.12   5988.44    2.31
2556   5988.44   5990.75    2.31
2557   5990.75   5993.06    2.31
2558   5993.06   5995.38    2.31
2559   5995.38   5997.69    2.31
2560   5997.69   6000.00    2.31
2561   6000.00   6002.31    2.31
2562   6002.31   6004.62    2.31
2563   6004.62   6006.94    2.31
2564   6006.94   6009.25    2.31
2565   6009.25   6011.56    2.31
2566   6011.56   6013.88    2.31
2567   6013.88   6016.19    2.31
2568   6016.19   6018.50    2.31
2569   6018.50   6020.81    2.31
2570   6020.81   6023.12    2.31
2571   6023.12   6025.44    2.31
2572   6025.44   6027.75    2.31
2573   6027.75   6030.06    2.31
2574   6030.06   6032.38    2.31
2575   6032.38   6034.69    2.31
2576   6034.69   6037.00    2.31
2577   6037.00   6039.31    2.31
2578   6039.31   6041.62    2.31
2579   6041.62   6043.94    2.31
2580   6043.94   6046.25    2.31
2581   6046.25   6048.56    2.31
2582   6048.56   6050.88    2.31
2583   6050.88   6053.19    2.31
2584   6053.19   6055.50    2.31
2585   6055.50   6057.81    2.31
2586   6057.81   6060.12    2.31
2587   6060.12   6062.44    2.31
2588   6062.44   6064.75    2.31
2589   6064.75   6067.06    2.31
2590   6067.06   6069.38    2.31
2591   6069.38   6071.69    2.31
2592   6071.69   6074.00    2.31
2593   6074.00   6076.31    2.31
2594   6076.31   6078.62    2.31
2595   6078.62   6080.94    2.31
2596   6080.94   6083.25    2.31
2597   6083.25   6085.56    2.31
2598   6085.56   6087.88    2.31
2599   6087.88   6090.19    2.31
2600   6090.19   6092.50    2.31
2601   6092.50   6094.81    2.31
2602   6094.81   6097.12    2.31
2603   6097.12   6099.44    2.31
2604   6099.44   6101.75    2.31
2605   6101.75   6104.06    2.31
2606   6104.06   6106.38    2.31
2607   6106.38   6108.69    2.31
2608   6108.69   6111.00    2.31
2609   6111.00   6113.31    2.31
2610   6113.31   6115.62    2.31
2611   6115.62   6117.94    2.31
2612   6117.94   6120.25    2.31
2613   6120.25   6122.56    2.31
2614   6122.56   6124.88    2.31
2615   6124.88   6127.19    2.31
2616   6127.19   6129.50    2.31
2617   6129.50   6131.81    2.31
2618   6131.81   6134.12    2.31
2619   6134.12   6136.44    2.31
2620   6136.44   6138.75    2.31
2621   6138.75   6141.06    2.31
2622   6141.06   6143.38    2.31
2623   6143.38   6145.69    2.31
2624   6145.69   6148.00    2.31
2625   6148.00   6150.31    2.31
2626   6150.31   6152.62    2.31
2627   6152.62   6154.94    2.31
2628   6154.94   6157.25    2.31
2629   6157.25   6159.56    2.31
2630   6159.56   6161.88    2.31
2631   6161.88   6164.19    2.31
2632   6164.19   6166.50    2.31
2633   6166.50   6168.81    2.31
2634   6168.81   6171.12    2.31
2635   6171.12   6173.44    2.31
2636   6173.44   6175.75    2.31
2637   6175.75   6178.06    2.31
2638   6178.06   6180.38    2.31
2639   6180.38   6182.69    2.31
2640   6182.69   6185.00    2.31
2641   6185.00   6187.31    2.31
2642   6187.31   6189.62    2.31
2643   6189.62   6191.94    2.31
2644   6191.94   6194.25    2.31
2645   6194.25   6196.56    2.31
2646   6196.56   6198.88    2.31
2647   6198.88   6201.19    2.31
2648   6201.19   6203.50    2.31
2649   6203.50   6205.81    2.31
2650   6205.81   6208.12    2.31
2651   6208.12   6210.44    2.31
2652   6210.44   6212.75    2.31
2653   6212.75   6215.06    2.31
2654   6215.06   6217.38    2.31
2655   6217.38   6219.69    2.31
2656   6219.69   6222.00    2.31
2657   6222.00   6224.31    2.31
2658   6224.31   6226.62    2.31
2659   6226.62   6228.94    2.31
2660   6228.94   6231.25    2.31
2661   6231.25   6233.56    2.31
2662   6233.56   6235.88    2.31
2663   6235.88   6238.19    2.31
2664   6238.19   6240.50    2.31
2665   6240.50   6242.81    2.31
2666   6242.81   6245.12    2.31
2667   6245.12   6247.44    2.31
2668   6247.44   6249.75    2.31
2669   6249.75   6252.06    2.31
2670   6252.06   6254.38    2.31
2671   6254.38   6256.69    2.31
2672   6256.69   6259.00    2.31
2673   6259.00   6261.31    2.31
2674   6261.31   6263.62    2.31
2675   6263.62   6265.94    2.31
2676   6265.94   6268.25    2.31
2677   6268.25   6270.56    2.31
2678   6270.56   6272.88    2.31
2679   6272.88   6275.19    2.31
2680   6275.19   6277.50    2.31
2681   6277.50   6279.81    2.31
2682   6279.81   6282.12    2.31
2683   6282.12   6284.44    2.31
2684   6284.44   6286.75    2.31
2685   6286.75   6289.06    2.31
2686   6289.06   6291.38    2.31
2687   6291.38   6293.69    2.31
2688   6293.69   6296.00    2.31
2689   6296.00   6298.31    2.31
2690   6298.31   6300.62    2.31
2691   6300.62   6302.94    2.31
2692   6302.94   6305.25    2.31
2693   6305.25   6307.56    2.31
2694   6307.56   6309.88    2.31
2695   6309.88   6312.19    2.31
2696   6312.19   6314.50    2.31
2697   6314.50   6316.81    2.31
2698   6316.81   6319.12    2.31
2699   6319.12   6321.44    2.31
2700   6321.44   6323.75    2.31
2701   6323.75   6326.06    2.31
2702   6326.06   6328.38    2.31
2703   6328.38   6330.69    2.31
2704   6330.69   6333.00    2.31
2705   6333.00   6335.31    2.31
2706   6335.31   6337.62    2.31
2707   6337.62   6339.94    2.31
2708   6339.94   6342.25    2.31
2709   6342.25   6344.56    2.31
2710   6344.56   6346.88    2.31
2711   6346.88   6349.19    2.31
2712   6349.19   6351.50    2.31
2713   6351.50   6353.81    2.31
2714   6353.81   6356.12    2.31
2715   6356.12   6358.44    2.31
2716   6358.44   6360.75    2.31
2717   6360.75   6363.06    2.31
2718   6363.06   6365.38    2.31
2719   6365.38   6367.69    2.31
2720   6367.69   6370.00    2.31
2721   6370.00   6372.31    2.31
2722   6372.31   6374.62    2.31
2723   6374.62   6376.94    2.31
2724   6376.94   6379.25    2.31
2725   6379.25   6381.56    2.31
2726   6381.56   6383.88    2.31
2727   6383.88   6386.19    2.31
2728   6386.19   6388.50    2.31
2729   6388.50   6390.81    2.31
2730   6390.81   6393.12    2.31
2731   6393.12   6395.44    2.31
2732   6395.44   6397.75    2.31
2733   6397.75   6400.06    2.31
2734   6400.06   6402.38    2.31
2735   6402.38   6404.69    2.31
2736   6404.69   6407.00    2.31
2737   6407.00   6409.31    2.31
2738   6409.31   6411.62    2.31
2739   6411.62   6413.94    2.31
2740   6413.94   6416.25    2.31
2741   6416.25   6418.56    2.31
2742   6418.56   6420.88    2.31
2743   6420.88   6423.19    2.31
2744   6423.19   6425.50    2.31
2745   6425.50   6427.81    2.31
2746   6427.81   6430.12    2.31
2747   6430.12   6432.44    2.31
2748   6432.44   6434.75    2.31
2749   6434.75   6437.06    2.31
2750   6437.06   6439.38    2.31
2751   6439.38   6441.69    2.31
2752   6441.69   6444.00    2.31
2753   6444.00   6446.31    2.31
2754   6446.31   6448.62    2.31
2755   6448.62   6450.94    2.31
2756   6450.94   6453.25    2.31
2757   6453.25   6455.56    2.31
2758   6455.56   6457.88    2.31
2759   6457.88   6460.19    2.31
2760   6460.19   6462.50    2.31
2761   6462.50   6464.81    2.31
2762   6464.81   6467.12    2.31
2763   6467.12   6469.44    2.31
2764   6469.44   6471.75    2.31
2765   6471.75   6474.06    2.31
2766   6474.06   6476.38    2.31
2767   6476.38   6478.69    2.31
2768   6478.69   6481.00    2.31
2769   6481.00   6483.31    2.31
2770   6483.31   6485.62    2.31
2771   6485.62   6487.94    2.31
2772   6487.94   6490.25    2.31
2773   6490.25   6492.56    2.31
2774   6492.56   6494.88    2.31
2775   6494.88   6497.19    2.31
2776   6497.19   6499.50    2.31
2777   6499.50   6501.81    2.31
2778   6501.81   6504.12    2.31
2779   6504.12   6506.44    2.31
2780   6506.44   6508.75    2.31
2781   6508.75   6511.06    2.31
2782   6511.06   6513.38    2.31
2783   6513.38   6515.69    2.31
2784   6515.69   6518.00    2.31
2785   6518.00   6520.31    2.31
2786   6520.31   6522.62    2.31
2787   6522.62   6524.94    2.31
2788   6524.94   6527.25    2.31
2789   6527.25   6529.56    2.31
2790   6529.56   6531.88    2.31
2791   6531.88   6534.19    2.31
2792   6534.19   6536.50    2.31
2793   6536.50   6538.81    2.31
2794   6538.81   6541.12    2.31
2795   6541.12   6543.44    2.31
2796   6543.44   6545.75    2.31
2797   6545.75   6548.06    2.31
2798   6548.06   6550.38    2.31
2799   6550.38   6552.69    2.31
2800   6552.69   6555.00    2.31
2801   6555.00   6557.31    2.31
2802   6557.31   6559.62    2.31
2803   6559.62   6561.94    2.31
2804   6561.94   6564.25    2.31
2805   6564.25   6566.56    2.31
2806   6566.56   6568.88    2.31
2807   6568.88   6571.19    2.31
2808   6571.19   6573.50    2.31
2809   6573.50   6575.81    2.31
2810   6575.81   6578.12    2.31
2811   6578.12   6580.44    2.31
2812   6580.44   6582.75    2.31
2813   6582.75   6585.06    2.31
2814   6585.06   6587.38    2.31
2815   6587.38   6589.69    2.31
2816   6589.69   6592.00    2.31
2817   6592.00   6594.31    2.31
2818   6594.31   6596.62    2.31
2819   6596.62   6598.94    2.31
2820   6598.94   6601.25    2.31
2821   6601.25   6603.56    2.31
2822   6603.56   6605.88    2.31
2823   6605.88   6608.19    2.31
2824   6608.19   6610.50    2.31
2825   6610.50   6612.81    2.31
2826   6612.81   6615.12    2.31
2827   6615.12   6617.44    2.31
2828   6617.44   6619.75    2.31
2829   6619.75   6622.06    2.31
2830   6622.06   6624.38    2.31
2831   6624.38   6626.69    2.31
2832   6626.69   6629.00    2.31
2833   6629.00   6631.31    2.31
2834   6631.31   6633.62    2.31
2835   6633.62   6635.94    2.31
2836   6635.94   6638.25    2.31
2837   6638.25   6640.56    2.31
2838   6640.56   6642.88    2.31
2839   6642.88   6645.19    2.31
2840   6645.19   6647.50    2.31
2841   6647.50   6649.81    2.31
2842   6649.81   6652.12    2.31
2843   6652.12   6654.44    2.31
2844   6654.44   6656.75    2.31
2845   6656.75   6659.06    2.31
2846   6659.06   6661.38    2.31
2847   6661.38   6663.69    2.31
2848   6663.69   6666.00    2.31
2849   6666.00   6668.31    2.31
2850   6668.31   6670.62    2.31
2851   6670.62   6672.94    2.31
2852   6672.94   6675.25    2.31
2853   6675.25   6677.56    2.31
2854   6677.56   6679.88    2.31
2855   6679.88   6682.19    2.31
2856   6682.19   6684.50    2.31
2857   6684.50   6686.81    2.31
2858   6686.81   6689.12    2.31
2859   6689.12   6691.44    2.31
2860   6691.44   6693.75    2.31
2861   6693.75   6696.06    2.31
2862   6696.06   6698.38    2.31
2863   6698.38   6700.69    2.31
2864   6700.69   6703.00    2.31
2865   6703.00   6705.31    2.31
2866   6705.31   6707.62    2.31
2867   6707.62   6709.94    2.31
2868   6709.94   6712.25    2.31
2869   6712.25   6714.56    2.31
2870   6714.56   6716.88    2.31
2871   6716.88   6719.19    2.31
2872   6719.19   6721.50    2.31
2873   6721.50   6723.81    2.31
2874   6723.81   6726.12    2.31
2875   6726.12   6728.44    2.31
2876   6728.44   6730.75    2.31
2877   6730.75   6733.06    2.31
2878   6733.06   6735.38    2.31
2879   6735.38   6737.69    2.31
2880   6737.69   6740.00    2.31
2881   6740.00   6742.31    2.31
2882   6742.31   6744.62    2.31
2883   6744.62   6746.94    2.31
2884   6746.94   6749.25    2.31
2885   6749.25   6751.56    2.31
2886   6751.56   6753.88    2.31
2887   6753.88   6756.19    2.31
2888   6756.19   6758.50    2.31
2889   6758.50   6760.81    2.31
2890   6760.81   6763.12    2.31
2891   6763.12   6765.44    2.31
2892   6765.44   6767.75    2.31
2893   6767.75   6770.06    2.31
2894   6770.06   6772.38    2.31
2895   6772.38   6774.69    2.31
2896   6774.69   6777.00    2.31
2897   6777.00   6779.31    2.31
2898   6779.31   6781.62    2.31
2899   6781.62   6783.94    2.31
2900   6783.94   6786.25    2.31
2901   6786.25   6788.56    2.31
2902   6788.56   6790.88    2.31
2903   6790.88   6793.19    2.31
2904   6793.19   6795.50    2.31
2905   6795.50   6797.81    2.31
2906   6797.81   6800.12    2.31
2907   6800.12   6802.44    2.31
2908   6802.44   6804.75    2.31
2909   6804.75   6807.06    2.31
2910   6807.06   6809.38    2.31
2911   6809.38   6811.69    2.31
2912   6811.69   6814.00    2.31
2913   6814.00   6816.31    2.31
2914   6816.31   6818.62    2.31
2915   6818.62   6820.94    2.31
2916   6820.94   6823.25    2.31
2917   6823.25   6825.56    2.31
2918   6825.56   6827.88    2.31
2919   6827.88   6830.19    2.31
2920   6830.19   6832.50    2.31
2921   6832.50   6834.81    2.31
2922   6834.81   6837.12    2.31
2923   6837.12   6839.44    2.31
2924   6839.44   6841.75    2.31
2925   6841.75   6844.06    2.31
2926   6844.06   6846.38    2.31
2927   6846.38   6848.69    2.31
2928   6848.69   6851.00    2.31
2929   6851.00   6853.31    2.31
2930   6853.31   6855.62    2.31
2931   6855.62   6857.94    2.31
2932   6857.94   6860.25    2.31
2933   6860.25   6862.56    2.31
2934   6862.56   6864.88    2.31
2935   6864.88   6867.19    2.31
2936   6867.19   6869.50    2.31
2937   6869.50   6871.81    2.31
2938   6871.81   6874.12    2.31
2939   6874.12   6876.44    2.31
2940   6876.44   6878.75    2.31
2941   6878.75   6881.06    2.31
2942   6881.06   6883.38    2.31
2943   6883.38   6885.69    2.31
2944   6885.69   6888.00    2.31
2945   6888.00   6890.31    2.31
2946   6890.31   6892.62    2.31
2947   6892.62   6894.94    2.31
2948   6894.94   6897.25    2.31
2949   6897.25   6899.56    2.31
2950   6899.56   6901.88    2.31
2951   6901.88   6904.19    2.31
2952   6904.19   6906.50    2.31
2953   6906.50   6908.81    2.31
2954   6908.81   6911.12    2.31
2955   6911.12   6913.44    2.31
2956   6913.44   6915.75    2.31
2957   6915.75   6918.06    2.31
2958   6918.06   6920.38    2.31
2959   6920.38   6922.69    2.31
2960   6922.69   6925.00    2.31
2961   6925.00   6927.31    2.31
2962   6927.31   6929.62    2.31
2963   6929.62   6931.94    2.31
2964   6931.94   6934.25    2.31
2965   6934.25   6936.56    2.31
2966   6936.56   6938.88    2.31
2967   6938.88   6941.19    2.31
2968   6941.19   6943.50    2.31
2969   6943.50   6945.81    2.31
2970   6945.81   6948.12    2.31
2971   6948.12   6950.44    2.31
2972   6950.44   6952.75    2.31
2973   6952.75   6955.06    2.31
2974   6955.06   6957.38    2.31
2975   6957.38   6959.69    2.31
2976   6959.69   6962.00    2.31
2977   6962.00   6964.31    2.31
2978   6964.31   6966.62    2.31
2979   6966.62   6968.94    2.31
2980   6968.94   6971.25    2.31
2981   6971.25   6973.56    2.31
2982   6973.56   6975.88    2.31
2983   6975.88   6978.19    2.31
2984   6978.19   6980.50    2.31
2985   6980.50   6982.81    2.31
2986   6982.81   6985.12    2.31
2987   6985.12   6987.44    2.31
2988   6987.44   6989.75    2.31
2989   6989.75   6992.06    2.31
2990   6992.06   6994.38    2.31
2991   6994.38   6996.69    2.31
2992   6996.69   6999.00    2.31
2993   6999.00   7001.31    2.31
2994   7001.31   7003.62    2.31
2995   7003.62   7005.94    2.31
2996   7005.94   7008.25    2.31
2997   7008.25   7010.56    2.31
2998   7010.56   7012.88    2.31
2999   7012.88   7015.19    2.31
3000   7015.19   7017.50    2.31
3001   7017.50   7019.81    2.31
3002   7019.81   7022.12    2.31
3003   7022.12   7024.44    2.31
3004   7024.44   7026.75    2.31
3005   7026.75   7029.06    2.31
3006   7029.06   7031.38    2.31
3007   7031.38   7033.69    2.31
3008   7033.69   7036.00    2.31
3009   7036.00   7038.31    2.31
3010   7038.31   7040.62    2.31
3011   7040.62   7042.94    2.31
3012   7042.94   7045.25    2.31
3013   7045.25   7047.56    2.31
3014   7047.56   7049.88    2.31
3015   7049.88   7052.19    2.31
3016   7052.19   7054.50    2.31
3017   7054.50   7056.81    2.31
3018   7056.81   7059.12    2.31
3019   7059.12   7061.44    2.31
3020   7061.44   7063.75    2.31
3021   7063.75   7066.06    2.31
3022   7066.06   7068.38    2.31
3023   7068.38   7070.69    2.31
3024   7070.69   7073.00    2.31
3025   7073.00   7075.31    2.31
3026   7075.31   7077.62    2.31
3027   7077.62   7079.94    2.31
3028   7079.94   7082.25    2.31
3029   7082.25   7084.56    2.31
3030   7084.56   7086.88    2.31
3031   7086.88   7089.19    2.31
3032   7089.19   7091.50    2.31
3033   7091.50   7093.81    2.31
3034   7093.81   7096.12    2.31
3035   7096.12   7098.44    2.31
3036   7098.44   7100.75    2.31
3037   7100.75   7103.06    2.31
3038   7103.06   7105.38    2.31
3039   7105.38   7107.69    2.31
3040   7107.69   7110.00    2.31
3041   7110.00   7112.31    2.31
3042   7112.31   7114.62    2.31
3043   7114.62   7116.94    2.31
3044   7116.94   7119.25    2.31
3045   7119.25   7121.56    2.31
3046   7121.56   7123.88    2.31
3047   7123.88   7126.19    2.31
3048   7126.19   7128.50    2.31
3049   7128.50   7130.81    2.31
3050   7130.81   7133.12    2.31
3051   7133.12   7135.44    2.31
3052   7135.44   7137.75    2.31
3053   7137.75   7140.06    2.31
3054   7140.06   7142.38    2.31
3055   7142.38   7144.69    2.31
3056   7144.69   7147.00    2.31
3057   7147.00   7149.31    2.31
3058   7149.31   7151.62    2.31
3059   7151.62   7153.94    2.31
3060   7153.94   7156.25    2.31
3061   7156.25   7158.56    2.31
3062   7158.56   7160.88    2.31
3063   7160.88   7163.19    2.31
3064   7163.19   7165.50    2.31
3065   7165.50   7167.81    2.31
3066   7167.81   7170.12    2.31
3067   7170.12   7172.44    2.31
3068   7172.44   7174.75    2.31
3069   7174.75   7177.06    2.31
3070   7177.06   7179.38    2.31
3071   7179.38   7181.69    2.31
3072   7181.69   7184.00    2.31
3073   7184.00   7186.31    2.31
3074   7186.31   7188.62    2.31
3075   7188.62   7190.94    2.31
3076   7190.94   7193.25    2.31
3077   7193.25   7195.56    2.31
3078   7195.56   7197.88    2.31
3079   7197.88   7200.19    2.31
3080   7200.19   7202.50    2.31
3081   7202.50   7204.81    2.31
3082   7204.81   7207.12    2.31
3083   7207.12   7209.44    2.31
3084   7209.44   7211.75    2.31
3085   7211.75   7214.06    2.31
3086   7214.06   7216.38    2.31
3087   7216.38   7218.69    2.31
3088   7218.69   7221.00    2.31
3089   7221.00   7223.31    2.31
3090   7223.31   7225.62    2.31
3091   7225.62   7227.94    2.31
3092   7227.94   7230.25    2.31
3093   7230.25   7232.56    2.31
3094   7232.56   7234.88    2.31
3095   7234.88   7237.19    2.31
3096   7237.19   7239.50    2.31
3097   7239.50   7241.81    2.31
3098   7241.81   7244.12    2.31
3099   7244.12   7246.44    2.31
3100   7246.44   7248.75    2.31
3101   7248.75   7251.06    2.31
3102   7251.06   7253.38    2.31
3103   7253.38   7255.69    2.31
3104   7255.69   7258.00    2.31
3105   7258.00   7260.31    2.31
3106   7260.31   7262.62    2.31
3107   7262.62   7264.94    2.31
3108   7264.94   7267.25    2.31
3109   7267.25   7269.56    2.31
3110   7269.56   7271.88    2.31
3111   7271.88   7274.19    2.31
3112   7274.19   7276.50    2.31
3113   7276.50   7278.81    2.31
3114   7278.81   7281.12    2.31
3115   7281.12   7283.44    2.31
3116   7283.44   7285.75    2.31
3117   7285.75   7288.06    2.31
3118   7288.06   7290.38    2.31
3119   7290.38   7292.69    2.31
3120   7292.69   7295.00    2.31
3121   7295.00   7297.31    2.31
3122   7297.31   7299.62    2.31
3123   7299.62   7301.94    2.31
3124   7301.94   7304.25    2.31
3125   7304.25   7306.56    2.31
3126   7306.56   7308.88    2.31
3127   7308.88   7311.19    2.31
3128   7311.19   7313.50    2.31
3129   7313.50   7315.81    2.31
3130   7315.81   7318.12    2.31
3131   7318.12   7320.44    2.31
3132   7320.44   7322.75    2.31
3133   7322.75   7325.06    2.31
3134   7325.06   7327.38    2.31
3135   7327.38   7329.69    2.31
3136   7329.69   7332.00    2.31
3137   7332.00   7334.31    2.31
3138   7334.31   7336.62    2.31
3139   7336.62   7338.94    2.31
3140   7338.94   7341.25    2.31
3141   7341.25   7343.56    2.31
3142   7343.56   7345.88    2.31
3143   7345.88   7348.19    2.31
3144   7348.19   7350.50    2.31
3145   7350.50   7352.81    2.31
3146   7352.81   7355.12    2.31
3147   7355.12   7357.44    2.31
3148   7357.44   7359.75    2.31
3149   7359.75   7362.06    2.31
3150   7362.06   7364.38    2.31
3151   7364.38   7366.69    2.31
3152   7366.69   7369.00    2.31
3153   7369.00   7371.31    2.31
3154   7371.31   7373.62    2.31
3155   7373.62   7375.94    2.31
3156   7375.94   7378.25    2.31
3157   7378.25   7380.56    2.31
3158   7380.56   7382.88    2.31
3159   7382.88   7385.19    2.31
3160   7385.19   7387.50    2.31
3161   7387.50   7389.81    2.31
3162   7389.81   7392.12    2.31
3163   7392.12   7394.44    2.31
3164   7394.44   7396.75    2.31
3165   7396.75   7399.06    2.31
3166   7399.06   7401.38    2.31
3167   7401.38   7403.69    2.31
3168   7403.69   7406.00    2.31
3169   7406.00   7408.31    2.31
3170   7408.31   7410.62    2.31
3171   7410.62   7412.94    2.31
3172   7412.94   7415.25    2.31
3173   7415.25   7417.56    2.31
3174   7417.56   7419.88    2.31
3175   7419.88   7422.19    2.31
3176   7422.19   7424.50    2.31
3177   7424.50   7426.81    2.31
3178   7426.81   7429.12    2.31
3179   7429.12   7431.44    2.31
3180   7431.44   7433.75    2.31
3181   7433.75   7436.06    2.31
3182   7436.06   7438.38    2.31
3183   7438.38   7440.69    2.31
3184   7440.69   7443.00    2.31
3185   7443.00   7445.31    2.31
3186   7445.31   7447.62    2.31
3187   7447.62   7449.94    2.31
3188   7449.94   7452.25    2.31
3189   7452.25   7454.56    2.31
3190   7454.56   7456.88    2.31
3191   7456.88   7459.19    2.31
3192   7459.19   7461.50    2.31
3193   7461.50   7463.81    2.31
3194   7463.81   7466.12    2.31
3195   7466.12   7468.44    2.31
3196   7468.44   7470.75    2.31
3197   7470.75   7473.06    2.31
3198   7473.06   7475.38    2.31
3199   7475.38   7477.69    2.31
3200   7477.69   7480.00    2.31
3201   7480.00   7482.31    2.31
3202   7482.31   7484.62    2.31
3203   7484.62   7486.94    2.31
3204   7486.94   7489.25    2.31
3205   7489.25   7491.56    2.31
3206   7491.56   7493.88    2.31
3207   7493.88   7496.19    2.31
3208   7496.19   7498.50    2.31
3209   7498.50   7500.81    2.31
3210   7500.81   7503.12    2.31
3211   7503.12   7505.44    2.31
3212   7505.44   7507.75    2.31
3213   7507.75   7510.06    2.31
3214   7510.06   7512.38    2.31
3215   7512.38   7514.69    2.31
3216   7514.69   7517.00    2.31
3217   7517.00   7519.31    2.31
3218   7519.31   7521.62    2.31
3219   7521.62   7523.94    2.31
3220   7523.94   7526.25    2.31
3221   7526.25   7528.56    2.31
3222   7528.56   7530.88    2.31
3223   7530.88   7533.19    2.31
3224   7533.19   7535.50    2.31
3225   7535.50   7537.81    2.31
3226   7537.81   7540.12    2.31
3227   7540.12   7542.44    2.31
3228   7542.44   7544.75    2.31
3229   7544.75   7547.06    2.31
3230   7547.06   7549.38    2.31
3231   7549.38   7551.69    2.31
3232   7551.69   7554.00    2.31
3233   7554.00   7556.31    2.31
3234   7556.31   7558.62    2.31
3235   7558.62   7560.94    2.31
3236   7560.94   7563.25    2.31
3237   7563.25   7565.56    2.31
3238   7565.56   7567.88    2.31
3239   7567.88   7570.19    2.31
3240   7570.19   7572.50    2.31
3241   7572.50   7574.81    2.31
3242   7574.81   7577.12    2.31
3243   7577.12   7579.44    2.31
3244   7579.44   7581.75    2.31
3245   7581.75   7584.06    2.31
3246   7584.06   7586.38    2.31
3247   7586.38   7588.69    2.31
3248   7588.69   7591.00    2.31
3249   7591.00   7593.31    2.31
3250   7593.31   7595.62    2.31
3251   7595.62   7597.94    2.31
3252   7597.94   7600.25    2.31
3253   7600.25   7602.56    2.31
3254   7602.56   7604.88    2.31
3255   7604.88   7607.19    2.31
3256   7607.19   7609.50    2.31
3257   7609.50   7611.81    2.31
3258   7611.81   7614.12    2.31
3259   7614.12   7616.44    2.31
3260   7616.44   7618.75    2.31
3261   7618.75   7621.06    2.31
3262   7621.06   7623.38    2.31
3263   7623.38   7625.69    2.31
3264   7625.69   7628.00    2.31
3265   7628.00   7630.31    2.31
3266   7630.31   7632.62    2.31
3267   7632.62   7634.94    2.31
3268   7634.94   7637.25    2.31
3269   7637.25   7639.56    2.31
3270   7639.56   7641.88    2.31
3271   7641.88   7644.19    2.31
3272   7644.19   7646.50    2.31
3273   7646.50   7648.81    2.31
3274   7648.81   7651.12    2.31
3275   7651.12   7653.44    2.31
3276   7653.44   7655.75    2.31
3277   7655.75   7658.06    2.31
3278   7658.06   7660.38    2.31
3279   7660.38   7662.69    2.31
3280   7662.69   7665.00    2.31
3281   7665.00   7667.31    2.31
3282   7667.31   7669.62    2.31
3283   7669.62   7671.94    2.31
3284   7671.94   7674.25    2.31
3285   7674.25   7676.56    2.31
3286   7676.56   7678.88    2.31
3287   7678.88   7681.19    2.31
3288   7681.19   7683.50    2.31
3289   7683.50   7685.81    2.31
3290   7685.81   7688.12    2.31
3291   7688.12   7690.44    2.31
3292   7690.44   7692.75    2.31
3293   7692.75   7695.06    2.31
3294   7695.06   7697.38    2.31
3295   7697.38   7699.69    2.31
3296   7699.69   7702.00    2.31
3297   7702.00   7704.31    2.31
3298   7704.31   7706.62    2.31
3299   7706.62   7708.94    2.31
3300   7708.94   7711.25    2.31
3301   7711.25   7713.56    2.31
3302   7713.56   7715.88    2.31
3303   7715.88   7718.19    2.31
3304   7718.19   7720.50    2.31
3305   7720.50   7722.81    2.31
3306   7722.81   7725.12    2.31
3307   7725.12   7727.44    2.31
3308   7727.44   7729.75    2.31
3309   7729.75   7732.06    2.31
3310   7732.06   7734.38    2.31
3311   7734.38   7736.69    2.31
3312   7736.69   7739.00    2.31
3313   7739.00   7741.31    2.31
3314   7741.31   7743.62    2.31
3315   7743.62   7745.94    2.31
3316   7745.94   7748.25    2.31
3317   7748.25   7750.56    2.31
3318   7750.56   7752.88    2.31
3319   7752.88   7755.19    2.31
3320   7755.19   7757.50    2.31
3321   7757.50   7759.81    2.31
3322   7759.81   7762.12    2.31
3323   7762.12   7764.44    2.31
3324   7764.44   7766.75    2.31
3325   7766.75   7769.06    2.31
3326   7769.06   7771.38    2.31
3327   7771.38   7773.69    2.31
3328   7773.69   7776.00    2.31
3329   7776.00   7778.31    2.31
3330   7778.31   7780.62    2.31
3331   7780.62   7782.94    2.31
3332   7782.94   7785.25    2.31
3333   7785.25   7787.56    2.31
3334   7787.56   7789.88    2.31
3335   7789.88   7792.19    2.31
3336   7792.19   7794.50    2.31
3337   7794.50   7796.81    2.31
3338   7796.81   7799.12    2.31
3339   7799.12   7801.44    2.31
3340   7801.44   7803.75    2.31
3341   7803.75   7806.06    2.31
3342   7806.06   7808.38    2.31
3343   7808.38   7810.69    2.31
3344   7810.69   7813.00    2.31
3345   7813.00   7815.31    2.31
3346   7815.31   7817.62    2.31
3347   7817.62   7819.94    2.31
3348   7819.94   7822.25    2.31
3349   7822.25   7824.56    2.31
3350   7824.56   7826.88    2.31
3351   7826.88   7829.19    2.31
3352   7829.19   7831.50    2.31
3353   7831.50   7833.81    2.31
3354   7833.81   7836.12    2.31
3355   7836.12   7838.44    2.31
3356   7838.44   7840.75    2.31
3357   7840.75   7843.06    2.31
3358   7843.06   7845.38    2.31
3359   7845.38   7847.69    2.31
3360   7847.69   7850.00    2.31
3361   7850.00   7852.31    2.31
3362   7852.31   7854.62    2.31
3363   7854.62   7856.94    2.31
3364   7856.94   7859.25    2.31
3365   7859.25   7861.56    2.31
3366   7861.56   7863.88    2.31
3367   7863.88   7866.19    2.31
3368   7866.19   7868.50    2.31
3369   7868.50   7870.81    2.31
3370   7870.81   7873.12    2.31
3371   7873.12   7875.44    2.31
3372   7875.44   7877.75    2.31
3373   7877.75   7880.06    2.31
3374   7880.06   7882.38    2.31
3375   7882.38   7884.69    2.31
3376   7884.69   7887.00    2.31
3377   7887.00   7889.31    2.31
3378   7889.31   7891.62    2.31
3379   7891.62   7893.94    2.31
3380   7893.94   7896.25    2.31
3381   7896.25   7898.56    2.31
3382   7898.56   7900.88    2.31
3383   7900.88   7903.19    2.31
3384   7903.19   7905.50    2.31
3385   7905.50   7907.81    2.31
3386   7907.81   7910.12    2.31
3387   7910.12   7912.44    2.31
3388   7912.44   7914.75    2.31
3389   7914.75   7917.06    2.31
3390   7917.06   7919.38    2.31
3391   7919.38   7921.69    2.31
3392   7921.69   7924.00    2.31
3393   7924.00   7926.31    2.31
3394   7926.31   7928.62    2.31
3395   7928.62   7930.94    2.31
3396   7930.94   7933.25    2.31
3397   7933.25   7935.56    2.31
3398   7935.56   7937.88    2.31
3399   7937.88   7940.19    2.31
3400   7940.19   7942.50    2.31
3401   7942.50   7944.81    2.31
3402   7944.81   7947.12    2.31
3403   7947.12   7949.44    2.31
3404   7949.44   7951.75    2.31
3405   7951.75   7954.06    2.31
3406   7954.06   7956.38    2.31
3407   7956.38   7958.69    2.31
3408   7958.69   7961.00    2.31
3409   7961.00   7963.31    2.31
3410   7963.31   7965.62    2.31
3411   7965.62   7967.94    2.31
3412   7967.94   7970.25    2.31
3413   7970.25   7972.56    2.31
3414   7972.56   7974.88    2.31
3415   7974.88   7977.19    2.31
3416   7977.19   7979.50    2.31
3417   7979.50   7981.81    2.31
3418   7981.81   7984.12    2.31
3419   7984.12   7986.44    2.31
3420   7986.44   7988.75    2.31
3421   7988.75   7991.06    2.31
3422   7991.06   7993.38    2.31
3423   7993.38   7995.69    2.31
3424   7995.69   7998.00    2.31
3425   7998.00   8000.31    2.31
3426   8000.31   8002.62    2.31
3427   8002.62   8004.94    2.31
3428   8004.94   8007.25    2.31
3429   8007.25   8009.56    2.31
3430   8009.56   8011.88    2.31
3431   8011.88   8014.19    2.31
3432   8014.19   8016.50    2.31
3433   8016.50   8018.81    2.31
3434   8018.81   8021.12    2.31
3435   8021.12   8023.44    2.31
3436   8023.44   8025.75    2.31
3437   8025.75   8028.06    2.31
3438   8028.06   8030.38    2.31
3439   8030.38   8032.69    2.31
3440   8032.69   8035.00    2.31
3441   8035.00   8037.31    2.31
3442   8037.31   8039.62    2.31
3443   8039.62   8041.94    2.31
3444   8041.94   8044.25    2.31
3445   8044.25   8046.56    2.31
3446   8046.56   8048.88    2.31
3447   8048.88   8051.19    2.31
3448   8051.19   8053.50    2.31
3449   8053.50   8055.81    2.31
3450   8055.81   8058.12    2.31
3451   8058.12   8060.44    2.31
3452   8060.44   8062.75    2.31
3453   8062.75   8065.06    2.31
3454   8065.06   8067.38    2.31
3455   8067.38   8069.69    2.31
3456   8069.69   8072.00    2.31
3457   8072.00   8074.31    2.31
3458   8074.31   8076.62    2.31
3459   8076.62   8078.94    2.31
3460   8078.94   8081.25    2.31
3461   8081.25   8083.56    2.31
3462   8083.56   8085.88    2.31
3463   8085.88   8088.19    2.31
3464   8088.19   8090.50    2.31
3465   8090.50   8092.81    2.31
3466   8092.81   8095.12    2.31
3467   8095.12   8097.44    2.31
3468   8097.44   8099.75    2.31
3469   8099.75   8102.06    2.31
3470   8102.06   8104.38    2.31
3471   8104.38   8106.69    2.31
3472   8106.69   8109.00    2.31
3473   8109.00   8111.31    2.31
3474   8111.31   8113.62    2.31
3475   8113.62   8115.94    2.31
3476   8115.94   8118.25    2.31
3477   8118.25   8120.56    2.31
3478   8120.56   8122.88    2.31
3479   8122.88   8125.19    2.31
3480   8125.19   8127.50    2.31
3481   8127.50   8129.81    2.31
3482   8129.81   8132.12    2.31
3483   8132.12   8134.44    2.31
3484   8134.44   8136.75    2.31
3485   8136.75   8139.06    2.31
3486   8139.06   8141.38    2.31
3487   8141.38   8143.69    2.31
3488   8143.69   8146.00    2.31
3489   8146.00   8148.31    2.31
3490   8148.31   8150.62    2.31
3491   8150.62   8152.94    2.31
3492   8152.94   8155.25    2.31
3493   8155.25   8157.56    2.31
3494   8157.56   8159.88    2.31
3495   8159.88   8162.19    2.31
3496   8162.19   8164.50    2.31
3497   8164.50   8166.81    2.31
3498   8166.81   8169.12    2.31
3499   8169.12   8171.44    2.31
3500   8171.44   8173.75    2.31
3501   8173.75   8176.06    2.31
3502   8176.06   8178.38    2.31
3503   8178.38   8180.69    2.31
3504   8180.69   8183.00    2.31
3505   8183.00   8185.31    2.31
3506   8185.31   8187.62    2.31
3507   8187.62   8189.94    2.31
3508   8189.94   8192.25    2.31
3509   8192.25   8194.56    2.31
3510   8194.56   8196.88    2.31
3511   8196.88   8199.19    2.31
3512   8199.19   8201.50    2.31
3513   8201.50   8203.81    2.31
3514   8203.81   8206.12    2.31
3515   8206.12   8208.44    2.31
3516   8208.44   8210.75    2.31
3517   8210.75   8213.06    2.31
3518   8213.06   8215.38    2.31
3519   8215.38   8217.69    2.31
3520   8217.69   8220.00    2.31
3521   8220.00   8222.31    2.31
3522   8222.31   8224.62    2.31
3523   8224.62   8226.94    2.31
3524   8226.94   8229.25    2.31
3525   8229.25   8231.56    2.31
3526   8231.56   8233.88    2.31
3527   8233.88   8236.19    2.31
3528   8236.19   8238.50    2.31
3529   8238.50   8240.81    2.31
3530   8240.81   8243.12    2.31
3531   8243.12   8245.44    2.31
3532   8245.44   8247.75    2.31
3533   8247.75   8250.06    2.31
3534   8250.06   8252.38    2.31
3535   8252.38   8254.69    2.31
3536   8254.69   8257.00    2.31
3537   8257.00   8259.31    2.31
3538   8259.31   8261.62    2.31
3539   8261.62   8263.94    2.31
3540   8263.94   8266.25    2.31
3541   8266.25   8268.56    2.31
3542   8268.56   8270.88    2.31
3543   8270.88   8273.19    2.31
3544   8273.19   8275.50    2.31
3545   8275.50   8277.81    2.31
3546   8277.81   8280.12    2.31
3547   8280.12   8282.44    2.31
3548   8282.44   8284.75    2.31
3549   8284.75   8287.06    2.31
3550   8287.06   8289.38    2.31
3551   8289.38   8291.69    2.31
3552   8291.69   8294.00    2.31
3553   8294.00   8296.31    2.31
3554   8296.31   8298.62    2.31
3555   8298.62   8300.94    2.31
3556   8300.94   8303.25    2.31
3557   8303.25   8305.56    2.31
3558   8305.56   8307.88    2.31
3559   8307.88   8310.19    2.31
3560   8310.19   8312.50    2.31
3561   8312.50   8314.81    2.31
3562   8314.81   8317.12    2.31
3563   8317.12   8319.44    2.31
3564   8319.44   8321.75    2.31
3565   8321.75   8324.06    2.31
3566   8324.06   8326.38    2.31
3567   8326.38   8328.69    2.31
3568   8328.69   8331.00    2.31
3569   8331.00   8333.31    2.31
3570   8333.31   8335.62    2.31
3571   8335.62   8337.94    2.31
3572   8337.94   8340.25    2.31
3573   8340.25   8342.56    2.31
3574   8342.56   8344.88    2.31
3575   8344.88   8347.19    2.31
3576   8347.19   8349.50    2.31
3577   8349.50   8351.81    2.31
3578   8351.81   8354.12    2.31
3579   8354.12   8356.44    2.31
3580   8356.44   8358.75    2.31
3581   8358.75   8361.06    2.31
3582   8361.06   8363.38    2.31
3583   8363.38   8365.69    2.31
3584   8365.69   8368.00    2.31
3585   8368.00   8370.31    2.31
3586   8370.31   8372.62    2.31
3587   8372.62   8374.94    2.31
3588   8374.94   8377.25    2.31
3589   8377.25   8379.56    2.31
3590   8379.56   8381.88    2.31
3591   8381.88   8384.19    2.31
3592   8384.19   8386.50    2.31
3593   8386.50   8388.81    2.31
3594   8388.81   8391.12    2.31
3595   8391.12   8393.44    2.31
3596   8393.44   8395.75    2.31
3597   8395.75   8398.06    2.31
3598   8398.06   8400.38    2.31
3599   8400.38   8402.69    2.31
3600   8402.69   8405.00    2.31
3601   8405.00   8407.31    2.31
3602   8407.31   8409.62    2.31
3603   8409.62   8411.94    2.31
3604   8411.94   8414.25    2.31
3605   8414.25   8416.56    2.31
3606   8416.56   8418.88    2.31
3607   8418.88   8421.19    2.31
3608   8421.19   8423.50    2.31
3609   8423.50   8425.81    2.31
3610   8425.81   8428.12    2.31
3611   8428.12   8430.44    2.31
3612   8430.44   8432.75    2.31
3613   8432.75   8435.06    2.31
3614   8435.06   8437.38    2.31
3615   8437.38   8439.69    2.31
3616   8439.69   8442.00    2.31
3617   8442.00   8444.31    2.31
3618   8444.31   8446.62    2.31
3619   8446.62   8448.94    2.31
3620   8448.94   8451.25    2.31
3621   8451.25   8453.56    2.31
3622   8453.56   8455.88    2.31
3623   8455.88   8458.19    2.31
3624   8458.19   8460.50    2.31
3625   8460.50   8462.81    2.31
3626   8462.81   8465.12    2.31
3627   8465.12   8467.44    2.31
3628   8467.44   8469.75    2.31
3629   8469.75   8472.06    2.31
3630   8472.06   8474.38    2.31
3631   8474.38   8476.69    2.31
3632   8476.69   8479.00    2.31
3633   8479.00   8481.31    2.31
3634   8481.31   8483.62    2.31
3635   8483.62   8485.94    2.31
3636   8485.94   8488.25    2.31
3637   8488.25   8490.56    2.31
3638   8490.56   8492.88    2.31
3639   8492.88   8495.19    2.31
3640   8495.19   8497.50    2.31
3641   8497.50   8499.81    2.31
3642   8499.81   8502.12    2.31
3643   8502.12   8504.44    2.31
3644   8504.44   8506.75    2.31
3645   8506.75   8509.06    2.31
3646   8509.06   8511.38    2.31
3647   8511.38   8513.69    2.31
3648   8513.69   8516.00    2.31
3649   8516.00   8518.31    2.31
3650   8518.31   8520.62    2.31
3651   8520.62   8522.94    2.31
3652   8522.94   8525.25    2.31
3653   8525.25   8527.56    2.31
3654   8527.56   8529.88    2.31
3655   8529.88   8532.19    2.31
3656   8532.19   8534.50    2.31
3657   8534.50   8536.81    2.31
3658   8536.81   8539.12    2.31
3659   8539.12   8541.44    2.31
3660   8541.44   8543.75    2.31
3661   8543.75   8546.06    2.31
3662   8546.06   8548.38    2.31
3663   8548.38   8550.69    2.31
3664   8550.69   8553.00    2.31
3665   8553.00   8555.31    2.31
3666   8555.31   8557.62    2.31
3667   8557.62   8559.94    2.31
3668   8559.94   8562.25    2.31
3669   8562.25   8564.56    2.31
3670   8564.56   8566.88    2.31
3671   8566.88   8569.19    2.31
3672   8569.19   8571.50    2.31
3673   8571.50   8573.81    2.31
3674   8573.81   8576.12    2.31
3675   8576.12   8578.44    2.31
3676   8578.44   8580.75    2.31
3677   8580.75   8583.06    2.31
3678   8583.06   8585.38    2.31
3679   8585.38   8587.69    2.31
3680   8587.69   8590.00    2.31
3681   8590.00   8592.31    2.31
3682   8592.31   8594.62    2.31
3683   8594.62   8596.94    2.31
3684   8596.94   8599.25    2.31
3685   8599.25   8601.56    2.31
3686   8601.56   8603.88    2.31
3687   8603.88   8606.19    2.31
3688   8606.19   8608.50    2.31
3689   8608.50   8610.81    2.31
3690   8610.81   8613.12    2.31
3691   8613.12   8615.44    2.31
3692   8615.44   8617.75    2.31
3693   8617.75   8620.06    2.31
3694   8620.06   8622.38    2.31
3695   8622.38   8624.69    2.31
3696   8624.69   8627.00    2.31
3697   8627.00   8629.31    2.31
3698   8629.31   8631.62    2.31
3699   8631.62   8633.94    2.31
3700   8633.94   8636.25    2.31
3701   8636.25   8638.56    2.31
3702   8638.56   8640.88    2.31
3703   8640.88   8643.19    2.31
3704   8643.19   8645.50    2.31
3705   8645.50   8647.81    2.31
3706   8647.81   8650.12    2.31
3707   8650.12   8652.44    2.31
3708   8652.44   8654.75    2.31
3709   8654.75   8657.06    2.31
3710   8657.06   8659.38    2.31
3711   8659.38   8661.69    2.31
3712   8661.69   8664.00    2.31
3713   8664.00   8666.31    2.31
3714   8666.31   8668.62    2.31
3715   8668.62   8670.94    2.31
3716   8670.94   8673.25    2.31
3717   8673.25   8675.56    2.31
3718   8675.56   8677.88    2.31
3719   8677.88   8680.19    2.31
3720   8680.19   8682.50    2.31
3721   8682.50   8684.81    2.31
3722   8684.81   8687.12    2.31
3723   8687.12   8689.44    2.31
3724   8689.44   8691.75    2.31
3725   8691.75   8694.06    2.31
3726   8694.06   8696.38    2.31
3727   8696.38   8698.69    2.31
3728   8698.69   8701.00    2.31
3729   8701.00   8703.31    2.31
3730   8703.31   8705.62    2.31
3731   8705.62   8707.94    2.31
3732   8707.94   8710.25    2.31
3733   8710.25   8712.56    2.31
3734   8712.56   8714.88    2.31
3735   8714.88   8717.19    2.31
3736   8717.19   8719.50    2.31
3737   8719.50   8721.81    2.31
3738   8721.81   8724.12    2.31
3739   8724.12   8726.44    2.31
3740   8726.44   8728.75    2.31
3741   8728.75   8731.06    2.31
3742   8731.06   8733.38    2.31
3743   8733.38   8735.69    2.31
3744   8735.69   8738.00    2.31
3745   8738.00   8740.31    2.31
3746   8740.31   8742.62    2.31
3747   8742.62   8744.94    2.31
3748   8744.94   8747.25    2.31
3749   8747.25   8749.56    2.31
3750   8749.56   8751.88    2.31
3751   8751.88   8754.19    2.31
3752   8754.19   8756.50    2.31
3753   8756.50   8758.81    2.31
3754   8758.81   8761.12    2.31
3755   8761.12   8763.44    2.31
3756   8763.44   8765.75    2.31
3757   8765.75   8768.06    2.31
3758   8768.06   8770.38    2.31
3759   8770.38   8772.69    2.31
3760   8772.69   8775.00    2.31
3761   8775.00   8777.31    2.31
3762   8777.31   8779.62    2.31
3763   8779.62   8781.94    2.31
3764   8781.94   8784.25    2.31
3765   8784.25   8786.56    2.31
3766   8786.56   8788.88    2.31
3767   8788.88   8791.19    2.31
3768   8791.19   8793.50    2.31
3769   8793.50   8795.81    2.31
3770   8795.81   8798.12    2.31
3771   8798.12   8800.44    2.31
3772   8800.44   8802.75    2.31
3773   8802.75   8805.06    2.31
3774   8805.06   8807.38    2.31
3775   8807.38   8809.69    2.31
3776   8809.69   8812.00    2.31
3777   8812.00   8814.31    2.31
3778   8814.31   8816.62    2.31
3779   8816.62   8818.94    2.31
3780   8818.94   8821.25    2.31
3781   8821.25   8823.56    2.31
3782   8823.56   8825.88    2.31
3783   8825.88   8828.19    2.31
3784   8828.19   8830.50    2.31
3785   8830.50   8832.81    2.31
3786   8832.81   8835.12    2.31
3787   8835.12   8837.44    2.31
3788   8837.44   8839.75    2.31
3789   8839.75   8842.06    2.31
3790   8842.06   8844.38    2.31
3791   8844.38   8846.69    2.31
3792   8846.69   8849.00    2.31
3793   8849.00   8851.31    2.31
3794   8851.31   8853.62    2.31
3795   8853.62   8855.94    2.31
3796   8855.94   8858.25    2.31
3797   8858.25   8860.56    2.31
3798   8860.56   8862.88    2.31
3799   8862.88   8865.19    2.31
3800   8865.19   8867.50    2.31
3801   8867.50   8869.81    2.31
3802   8869.81   8872.12    2.31
3803   8872.12   8874.44    2.31
3804   8874.44   8876.75    2.31
3805   8876.75   8879.06    2.31
3806   8879.06   8881.38    2.31
3807   8881.38   8883.69    2.31
3808   8883.69   8886.00    2.31
3809   8886.00   8888.31    2.31
3810   8888.31   8890.62    2.31
3811   8890.62   8892.94    2.31
3812   8892.94   8895.25    2.31
3813   8895.25   8897.56    2.31
3814   8897.56   8899.88    2.31
3815   8899.88   8902.19    2.31
3816   8902.19   8904.50    2.31
3817   8904.50   8906.81    2.31
3818   8906.81   8909.12    2.31
3819   8909.12   8911.44    2.31
3820   8911.44   8913.75    2.31
3821   8913.75   8916.06    2.31
3822   8916.06   8918.38    2.31
3823   8918.38   8920.69    2.31
3824   8920.69   8923.00    2.31
3825   8923.00   8925.31    2.31
3826   8925.31   8927.62    2.31
3827   8927.62   8929.94    2.31
3828   8929.94   8932.25    2.31
3829   8932.25   8934.56    2.31
3830   8934.56   8936.88    2.31
3831   8936.88   8939.19    2.31
3832   8939.19   8941.50    2.31
3833   8941.50   8943.81    2.31
3834   8943.81   8946.12    2.31
3835   8946.12   8948.44    2.31
3836   8948.44   8950.75    2.31
3837   8950.75   8953.06    2.31
3838   8953.06   8955.38    2.31
3839   8955.38   8957.69    2.31
3840   8957.69   8960.00    2.31
3841   8960.00   8962.31    2.31
3842   8962.31   8964.62    2.31
3843   8964.62   8966.94    2.31
3844   8966.94   8969.25    2.31
3845   8969.25   8971.56    2.31
3846   8971.56   8973.88    2.31
3847   8973.88   8976.19    2.31
3848   8976.19   8978.50    2.31
3849   8978.50   8980.81    2.31
3850   8980.81   8983.12    2.31
3851   8983.12   8985.44    2.31
3852   8985.44   8987.75    2.31
3853   8987.75   8990.06    2.31
3854   8990.06   8992.38    2.31
3855   8992.38   8994.69    2.31
3856   8994.69   8997.00    2.31
3857   8997.00   8999.31    2.31
3858   8999.31   9001.62    2.31
3859   9001.62   9003.94    2.31
3860   9003.94   9006.25    2.31
3861   9006.25   9008.56    2.31
3862   9008.56   9010.88    2.31
3863   9010.88   9013.19    2.31
3864   9013.19   9015.50    2.31
3865   9015.50   9017.81    2.31
3866   9017.81   9020.12    2.31
3867   9020.12   9022.44    2.31
3868   9022.44   9024.75    2.31
3869   9024.75   9027.06    2.31
3870   9027.06   9029.38    2.31
3871   9029.38   9031.69    2.31
3872   9031.69   9034.00    2.31
3873   9034.00   9036.31    2.31
3874   9036.31   9038.62    2.31
3875   9038.62   9040.94    2.31
3876   9040.94   9043.25    2.31
3877   9043.25   9045.56    2.31
3878   9045.56   9047.88    2.31
3879   9047.88   9050.19    2.31
3880   9050.19   9052.50    2.31
3881   9052.50   9054.81    2.31
3882   9054.81   9057.12    2.31
3883   9057.12   9059.44    2.31
3884   9059.44   9061.75    2.31
3885   9061.75   9064.06    2.31
3886   9064.06   9066.38    2.31
3887   9066.38   9068.69    2.31
3888   9068.69   9071.00    2.31
3889   9071.00   9073.31    2.31
3890   9073.31   9075.62    2.31
3891   9075.62   9077.94    2.31
3892   9077.94   9080.25    2.31
3893   9080.25   9082.56    2.31
3894   9082.56   9084.88    2.31
3895   9084.88   9087.19    2.31
3896   9087.19   9089.50    2.31
3897   9089.50   9091.81    2.31
3898   9091.81   9094.12    2.31
3899   9094.12   9096.44    2.31
3900   9096.44   9098.75    2.31
3901   9098.75   9101.06    2.31
3902   9101.06   9103.38    2.31
3903   9103.38   9105.69    2.31
3904   9105.69   9108.00    2.31
3905   9108.00   9110.31    2.31
3906   9110.31   9112.62    2.31
3907   9112.62   9114.94    2.31
3908   9114.94   9117.25    2.31
3909   9117.25   9119.56    2.31
3910   9119.56   9121.88    2.31
3911   9121.88   9124.19    2.31
3912   9124.19   9126.50    2.31
3913   9126.50   9128.81    2.31
3914   9128.81   9131.12    2.31
3915   9131.12   9133.44    2.31
3916   9133.44   9135.75    2.31
3917   9135.75   9138.06    2.31
3918   9138.06   9140.38    2.31
3919   9140.38   9142.69    2.31
3920   9142.69   9145.00    2.31
3921   9145.00   9147.31    2.31
3922   9147.31   9149.62    2.31
3923   9149.62   9151.94    2.31
3924   9151.94   9154.25    2.31
3925   9154.25   9156.56    2.31
3926   9156.56   9158.88    2.31
3927   9158.88   9161.19    2.31
3928   9161.19   9163.50    2.31
3929   9163.50   9165.81    2.31
3930   9165.81   9168.12    2.31
3931   9168.12   9170.44    2.31
3932   9170.44   9172.75    2.31
3933   9172.75   9175.06    2.31
3934   9175.06   9177.38    2.31
3935   9177.38   9179.69    2.31
3936   9179.69   9182.00    2.31
3937   9182.00   9184.31    2.31
3938   9184.31   9186.62    2.31
3939   9186.62   9188.94    2.31
3940   9188.94   9191.25    2.31
3941   9191.25   9193.56    2.31
3942   9193.56   9195.88    2.31
3943   9195.88   9198.19    2.31
3944   9198.19   9200.50    2.31
3945   9200.50   9202.81    2.31
3946   9202.81   9205.12    2.31
3947   9205.12   9207.44    2.31
3948   9207.44   9209.75    2.31
3949   9209.75   9212.06    2.31
3950   9212.06   9214.38    2.31
3951   9214.38   9216.69    2.31
3952   9216.69   9219.00    2.31
3953   9219.00   9221.31    2.31
3954   9221.31   9223.62    2.31
3955   9223.62   9225.94    2.31
3956   9225.94   9228.25    2.31
3957   9228.25   9230.56    2.31
3958   9230.56   9232.88    2.31
3959   9232.88   9235.19    2.31
3960   9235.19   9237.50    2.31
3961   9237.50   9239.81    2.31
3962   9239.81   9242.12    2.31
3963   9242.12   9244.44    2.31
3964   9244.44   9246.75    2.31
3965   9246.75   9249.06    2.31
3966   9249.06   9251.38    2.31
3967   9251.38   9253.69    2.31
3968   9253.69   9256.00    2.31
3969   9256.00   9258.31    2.31
3970   9258.31   9260.62    2.31
3971   9260.62   9262.94    2.31
3972   9262.94   9265.25    2.31
3973   9265.25   9267.56    2.31
3974   9267.56   9269.88    2.31
3975   9269.88   9272.19    2.31
3976   9272.19   9274.50    2.31
3977   9274.50   9276.81    2.31
3978   9276.81   9279.12    2.31
3979   9279.12   9281.44    2.31
3980   9281.44   9283.75    2.31
3981   9283.75   9286.06    2.31
3982   9286.06   9288.38    2.31
3983   9288.38   9290.69    2.31
3984   9290.69   9293.00    2.31
3985   9293.00   9295.31    2.31
3986   9295.31   9297.62    2.31
3987   9297.62   9299.94    2.31
3988   9299.94   9302.25    2.31
3989   9302.25   9304.56    2.31
3990   9304.56   9306.88    2.31
3991   9306.88   9309.19    2.31
3992   9309.19   9311.50    2.31
3993   9311.50   9313.81    2.31
3994   9313.81   9316.12    2.31
3995   9316.12   9318.44    2.31
3996   9318.44   9320.75    2.31
3997   9320.75   9323.06    2.31
3998   9323.06   9325.38    2.31
3999   9325.38   9327.69    2.31
4000   9327.69   9330.00    2.31
4001   9330.00   9332.31    2.31
4002   9332.31   9334.62    2.31
4003   9334.62   9336.94    2.31
4004   9336.94   9339.25    2.31
4005   9339.25   9341.56    2.31
4006   9341.56   9343.88    2.31
4007   9343.88   9346.19    2.31
4008   9346.19   9348.50    2.31
4009   9348.50   9350.81    2.31
4010   9350.81   9353.12    2.31
4011   9353.12   9355.44    2.31
4012   9355.44   9357.75    2.31
4013   9357.75   9360.06    2.31
4014   9360.06   9362.38    2.31
4015   9362.38   9364.69    2.31
4016   9364.69   9367.00    2.31
4017   9367.00   9369.31    2.31
4018   9369.31   9371.62    2.31
4019   9371.62   9373.94    2.31
4020   9373.94   9376.25    2.31
4021   9376.25   9378.56    2.31
4022   9378.56   9380.88    2.31
4023   9380.88   9383.19    2.31
4024   9383.19   9385.50    2.31
4025   9385.50   9387.81    2.31
4026   9387.81   9390.12    2.31
4027   9390.12   9392.44    2.31
4028   9392.44   9394.75    2.31
4029   9394.75   9397.06    2.31
4030   9397.06   9399.38    2.31
4031   9399.38   9401.69    2.31
4032   9401.69   9404.00    2.31
4033   9404.00   9406.31    2.31
4034   9406.31   9408.62    2.31
4035   9408.62   9410.94    2.31
4036   9410.94   9413.25    2.31
4037   9413.25   9415.56    2.31
4038   9415.56   9417.88    2.31
4039   9417.88   9420.19    2.31
4040   9420.19   9422.50    2.31
4041   9422.50   9424.81    2.31
4042   9424.81   9427.12    2.31
4043   9427.12   9429.44    2.31
4044   9429.44   9431.75    2.31
4045   9431.75   9434.06    2.31
4046   9434.06   9436.38    2.31
4047   9436.38   9438.69    2.31
4048   9438.69   9441.00    2.31
4049   9441.00   9443.31    2.31
4050   9443.31   9445.62    2.31
4051   9445.62   9447.94    2.31
4052   9447.94   9450.25    2.31
4053   9450.25   9452.56    2.31
4054   9452.56   9454.88    2.31
4055   9454.88   9457.19    2.31
4056   9457.19   9459.50    2.31
4057   9459.50   9461.81    2.31
4058   9461.81   9464.12    2.31
4059   9464.12   9466.44    2.31
4060   9466.44   9468.75    2.31
4061   9468.75   9471.06    2.31
4062   9471.06   9473.38    2.31
4063   9473.38   9475.69    2.31
4064   9475.69   9478.00    2.31
4065   9478.00   9480.31    2.31
4066   9480.31   9482.62    2.31
4067   9482.62   9484.94    2.31
4068   9484.94   9487.25    2.31
4069   9487.25   9489.56    2.31
4070   9489.56   9491.88    2.31
4071   9491.88   9494.19    2.31
4072   9494.19   9496.50    2.31
4073   9496.50   9498.81    2.31
4074   9498.81   9501.12    2.31
4075   9501.12   9503.44    2.31
4076   9503.44   9505.75    2.31
4077   9505.75   9508.06    2.31
4078   9508.06   9510.38    2.31
4079   9510.38   9512.69    2.31
4080   9512.69   9515.00    2.31
4081   9515.00   9517.31    2.31
4082   9517.31   9519.62    2.31
4083   9519.62   9521.94    2.31
4084   9521.94   9524.25    2.31
4085   9524.25   9526.56    2.31
4086   9526.56   9528.88    2.31
4087   9528.88   9531.19    2.31
4088   9531.19   9533.50    2.31
4089   9533.50   9535.81    2.31
4090   9535.81   9538.12    2.31
4091   9538.12   9540.44    2.31
4092   9540.44   9542.75    2.31
4093   9542.75   9545.06    2.31
4094   9545.06   9547.38    2.31
4095   9547.38   9549.69    2.31
4096   9549.69   9552.00    2.31
4097   9552.00   9554.31    2.31
4098   9554.31   9556.62    2.31
4099   9556.62   9558.94    2.31
4100   9558.94   9561.25    2.31
4101   9561.25   9563.56    2.31
4102   9563.56   9565.88    2.31
4103   9565.88   9568.19    2.31
4104   9568.19   9570.50    2.31
4105   9570.50   9572.81    2.31
4106   9572.81   9575.12    2.31
4107   9575.12   9577.44    2.31
4108   9577.44   9579.75    2.31
4109   9579.75   9582.06    2.31
4110   9582.06   9584.38    2.31
4111   9584.38   9586.69    2.31
4112   9586.69   9589.00    2.31
4113   9589.00   9591.31    2.31
4114   9591.31   9593.62    2.31
4115   9593.62   9595.94    2.31
4116   9595.94   9598.25    2.31
4117   9598.25   9600.56    2.31
4118   9600.56   9602.88    2.31
4119   9602.88   9605.19    2.31
4120   9605.19   9607.50    2.31
4121   9607.50   9609.81    2.31
4122   9609.81   9612.12    2.31
4123   9612.12   9614.44    2.31
4124   9614.44   9616.75    2.31
4125   9616.75   9619.06    2.31
4126   9619.06   9621.38    2.31
4127   9621.38   9623.69    2.31
4128   9623.69   9626.00    2.31
4129   9626.00   9628.31    2.31
4130   9628.31   9630.62    2.31
4131   9630.62   9632.94    2.31
4132   9632.94   9635.25    2.31
4133   9635.25   9637.56    2.31
4134   9637.56   9639.88    2.31
4135   9639.88   9642.19    2.31
4136   9642.19   9644.50    2.31
4137   9644.50   9646.81    2.31
4138   9646.81   9649.12    2.31
4139   9649.12   9651.44    2.31
4140   9651.44   9653.75    2.31
4141   9653.75   9656.06    2.31
4142   9656.06   9658.38    2.31
4143   9658.38   9660.69    2.31
4144   9660.69   9663.00    2.31
4145   9663.00   9665.31    2.31
4146   9665.31   9667.62    2.31
4147   9667.62   9669.94    2.31
4148   9669.94   9672.25    2.31
4149   9672.25   9674.56    2.31
4150   9674.56   9676.88    2.31
4151   9676.88   9679.19    2.31
4152   9679.19   9681.50    2.31
4153   9681.50   9683.81    2.31
4154   9683.81   9686.12    2.31
4155   9686.12   9688.44    2.31
4156   9688.44   9690.75    2.31
4157   9690.75   9693.06    2.31
4158   9693.06   9695.38    2.31
4159   9695.38   9697.69    2.31
4160   9697.69   9700.00    2.31
4161   9700.00   9702.31    2.31
4162   9702.31   9704.62    2.31
4163   9704.62   9706.94    2.31
4164   9706.94   9709.25    2.31
4165   9709.25   9711.56    2.31
4166   9711.56   9713.88    2.31
4167   9713.88   9716.19    2.31
4168   9716.19   9718.50    2.31
4169   9718.50   9720.81    2.31
4170   9720.81   9723.12    2.31
4171   9723.12   9725.44    2.31
4172   9725.44   9727.75    2.31
4173   9727.75   9730.06    2.31
4174   9730.06   9732.38    2.31
4175   9732.38   9734.69    2.31
4176   9734.69   9737.00    2.31
4177   9737.00   9739.31    2.31
4178   9739.31   9741.62    2.31
4179   9741.62   9743.94    2.31
4180   9743.94   9746.25    2.31
4181   9746.25   9748.56    2.31
4182   9748.56   9750.88    2.31
4183   9750.88   9753.19    2.31
4184   9753.19   9755.50    2.31
4185   9755.50   9757.81    2.31
4186   9757.81   9760.12    2.31
4187   9760.12   9762.44    2.31
4188   9762.44   9764.75    2.31
4189   9764.75   9767.06    2.31
4190   9767.06   9769.38    2.31
4191   9769.38   9771.69    2.31
4192   9771.69   9774.00    2.31
4193   9774.00   9776.31    2.31
4194   9776.31   9778.62    2.31
4195   9778.62   9780.94    2.31
4196   9780.94   9783.25    2.31
4197   9783.25   9785.56    2.31
4198   9785.56   9787.88    2.31
4199   9787.88   9790.19    2.31
4200   9790.19   9792.50    2.31
4201   9792.50   9794.81    2.31
4202   9794.81   9797.12    2.31
4203   9797.12   9799.44    2.31
4204   9799.44   9801.75    2.31
4205   9801.75   9804.06    2.31
4206   9804.06   9806.38    2.31
4207   9806.38   9808.69    2.31
4208   9808.69   9811.00    2.31
4209   9811.00   9813.31    2.31
4210   9813.31   9815.62    2.31
4211   9815.62   9817.94    2.31
4212   9817.94   9820.25    2.31
4213   9820.25   9822.56    2.31
4214   9822.56   9824.88    2.31
4215   9824.88   9827.19    2.31
4216   9827.19   9829.50    2.31
4217   9829.50   9831.81    2.31
4218   9831.81   9834.12    2.31
4219   9834.12   9836.44    2.31
4220   9836.44   9838.75    2.31
4221   9838.75   9841.06    2.31
4222   9841.06   9843.38    2.31
4223   9843.38   9845.69    2.31
4224   9845.69   9848.00    2.31
4225   9848.00   9850.31    2.31
4226   9850.31   9852.62    2.31
4227   9852.62   9854.94    2.31
4228   9854.94   9857.25    2.31
4229   9857.25   9859.56    2.31
4230   9859.56   9861.88    2.31
4231   9861.88   9864.19    2.31
4232   9864.19   9866.50    2.31
4233   9866.50   9868.81    2.31
4234   9868.81   9871.12    2.31
4235   9871.12   9873.44    2.31
4236   9873.44   9875.75    2.31
4237   9875.75   9878.06    2.31
4238   9878.06   9880.38    2.31
4239   9880.38   9882.69    2.31
4240   9882.69   9885.00    2.31
4241   9885.00   9887.31    2.31
4242   9887.31   9889.62    2.31
4243   9889.62   9891.94    2.31
4244   9891.94   9894.25    2.31
4245   9894.25   9896.56    2.31
4246   9896.56   9898.88    2.31
4247   9898.88   9901.19    2.31
4248   9901.19   9903.50    2.31
4249   9903.50   9905.81    2.31
4250   9905.81   9908.12    2.31
4251   9908.12   9910.44    2.31
4252   9910.44   9912.75    2.31
4253   9912.75   9915.06    2.31
4254   9915.06   9917.38    2.31
4255   9917.38   9919.69    2.31
4256   9919.69   9922.00    2.31
4257   9922.00   9924.31    2.31
4258   9924.31   9926.62    2.31
4259   9926.62   9928.94    2.31
4260   9928.94   9931.25    2.31
4261   9931.25   9933.56    2.31
4262   9933.56   9935.88    2.31
4263   9935.88   9938.19    2.31
4264   9938.19   9940.50    2.31
4265   9940.50   9942.81    2.31
4266   9942.81   9945.12    2.31
4267   9945.12   9947.44    2.31
4268   9947.44   9949.75    2.31
4269   9949.75   9952.06    2.31
4270   9952.06   9954.38    2.31
4271   9954.38   9956.69    2.31
4272   9956.69   9959.00    2.31
4273   9959.00   9961.31    2.31
4274   9961.31   9963.62    2.31
4275   9963.62   9965.94    2.31
4276   9965.94   9968.25    2.31
4277   9968.25   9970.56    2.31
4278   9970.56   9972.88    2.31
4279   9972.88   9975.19    2.31
4280   9975.19   9977.50    2.31
4281   9977.50   9979.81    2.31
4282   9979.81   9982.12    2.31
4283   9982.12   9984.44    2.31
4284   9984.44   9986.75    2.31
4285   9986.75   9989.06    2.31
4286   9989.06   9991.38    2.31
4287   9991.38   9993.69    2.31
4288   9993.69   9996.00    2.31
4289   9996.00   9998.31    2.31
4290   9998.31  10000.62    2.31
4291  10000.62  10002.94    2.31
4292  10002.94  10005.25    2.31
4293  10005.25  10007.56    2.31
4294  10007.56  10009.88    2.31
4295  10009.88  10012.19    2.31
4296  10012.19  10014.50    2.31
4297  10014.50  10016.81    2.31
4298  10016.81  10019.12    2.31
4299  10019.12  10021.44    2.31
4300  10021.44  10023.75    2.31
4301  10023.75  10026.06    2.31
4302  10026.06  10028.38    2.31
4303  10028.38  10030.69    2.31
4304  10030.69  10033.00    2.31
4305  10033.00  10035.31    2.31
4306  10035.31  10037.62    2.31
4307  10037.62  10039.94    2.31
4308  10039.94  10042.25    2.31
4309  10042.25  10044.56    2.31
4310  10044.56  10046.88    2.31
4311  10046.88  10049.19    2.31
4312  10049.19  10051.50    2.31
4313  10051.50  10053.81    2.31
4314  10053.81  10056.12    2.31
4315  10056.12  10058.44    2.31
4316  10058.44  10060.75    2.31
4317  10060.75  10063.06    2.31
4318  10063.06  10065.38    2.31
4319  10065.38  10067.69    2.31
4320  10067.69  10070.00    2.31
