   start[kHz] stop[kHz] bw[kHz]
  1    889.00   1111.00  222.00
  2   1866.78   2088.78  222.00
  3   2844.56   3066.56  222.00
  4   3822.33   4044.33  222.00
  5   4800.11   5022.11  222.00
  6   5777.89   5999.89  222.00
  7   6755.67   6977.67  222.00
  8   7733.44   7955.44  222.00
  9   8711.22   8933.22  222.00
 10   9689.00   9911.00  222.00
 11  10666.78  10888.78  222.00
 12  11644.56  11866.56  222.00
 13  12622.33  12844.33  222.00
 14  13600.11  13822.11  222.00
 15  14577.89  14799.89  222.00
 16  15555.67  15777.67  222.00
 17  16533.44  16755.44  222.00
 18  17511.22  17733.22  222.00
 19  18489.00  18711.00  222.00
 20  19466.78  19688.78  222.00
 21  20444.56  20666.56  222.00
 22  21422.33  21644.33  222.00
 23  22400.11  22622.11  222.00
 24  23377.89  23599.89  222.00
 25  24355.67  24577.67  222.00
 26  25333.44  25555.44  222.00
 27  26311.22  26533.22  222.00
 28  27289.00  27511.00  222.00
 29  28266.78  28488.78  222.00
 30  29244.56  29466.56  222.00
 31  30222.33  30444.33  222.00
 32  31200.11  31422.11  222.00
 33  32177.89  32399.89  222.00
 34  33155.67  33377.67  222.00
 35  34133.44  34355.44  222.00
 36  35111.22  35333.22  222.00
 37  36089.00  36311.00  222.00
 38  37066.78  37288.78  222.00
 39  38044.56  38266.56  222.00
 40  39022.33  39244.33  222.00
 41  40000.11  40222.11  222.00
 42  40977.89  41199.89  222.00
 43  41955.67  42177.67  222.00
 44  42933.44  43155.44  222.00
 45  43911.22  44133.22  222.00
