   start[kHz] stop[kHz] bw[kHz]
  1     66.12     93.88   27.75
  2     94.12    121.88   27.75
  3    122.12    149.88   27.75
  4    150.12    177.88   27.75
  5    178.12    205.88   27.75
  6    206.12    233.88   27.75
  7    234.12    261.88   27.75
  8    262.12    289.88   27.75
  9    290.12    317.88   27.75
 10    318.12    345.88   27.75
 11    346.12    373.88   27.75
 12    374.12    401.88   27.75
 13    402.12    429.88   27.75
 14    430.12    457.88   27.75
 15    458.12    485.88   27.75
 16    486.12    513.88   27.75
 17    514.12    541.88   27.75
 18    542.12    569.88   27.75
 19    570.12    597.88   27.75
 20    598.12    625.88   27.75
 21    626.12    653.88   27.75
 22    654.12    681.88   27.75
 23    682.12    709.88   27.75
 24    710.12    737.88   27.75
 25    738.12    765.88   27.75
 26    766.12    793.88   27.75
 27    794.12    821.88   27.75
 28    822.12    849.88   27.75
 29    850.12    877.88   27.75
 30    878.12    905.88   27.75
 31    906.12    933.88   27.75
 32    934.12    961.88   27.75
 33    962.12    989.88   27.75
 34    990.12   1017.88   27.75
 35   1018.12   1045.88   27.75
 36   1046.12   1073.88   27.75
 37   1074.12   1101.88   27.75
 38   1102.12   1129.88   27.75
 39   1130.12   1157.88   27.75
 40   1158.12   1185.88   27.75
 41   1186.12   1213.88   27.75
 42   1214.12   1241.88   27.75
 43   1242.12   1269.88   27.75
 44   1270.12   1297.88   27.75
 45   1298.12   1325.88   27.75
 46   1326.12   1353.88   27.75
 47   1354.12   1381.88   27.75
 48   1382.12   1409.88   27.75
 49   1410.12   1437.88   27.75
 50   1438.12   1465.88   27.75
 51   1466.12   1493.88   27.75
 52   1494.12   1521.88   27.75
 53   1522.12   1549.88   27.75
 54   1550.12   1577.88   27.75
 55   1578.12   1605.88   27.75
 56   1606.12   1633.88   27.75
 57   1634.12   1661.88   27.75
 58   1662.12   1689.88   27.75
 59   1690.12   1717.88   27.75
 60   1718.12   1745.88   27.75
 61   1746.12   1773.88   27.75
 62   1774.12   1801.88   27.75
 63   1802.12   1829.88   27.75
 64   1830.12   1857.88   27.75
 65   1858.12   1885.88   27.75
 66   1886.12   1913.88   27.75
 67   1914.12   1941.88   27.75
 68   1942.12   1969.88   27.75
 69   1970.12   1997.88   27.75
 70   1998.12   2025.88   27.75
 71   2026.12   2053.88   27.75
 72   2054.12   2081.88   27.75
